timestamps,TP9,AF7,AF8,TP10,Right AUX
1741724736.033,-944.824,-937.988,-785.156,-937.012,0.000
1741724736.037,-1000.000,-1000.000,-885.254,-1000.000,0.000
1741724736.041,-848.633,-768.555,-653.809,-735.352,0.000
1741724736.045,562.012,662.109,-263.184,690.430,0.000
1741724736.049,999.512,999.512,-365.234,999.512,0.000
1741724736.052,902.832,905.762,-252.930,907.715,0.000
1741724736.056,981.934,984.375,470.703,983.887,0.000
1741724736.060,969.727,970.215,655.273,970.215,0.000
1741724736.064,969.727,970.215,221.191,970.215,0.000
1741724736.068,969.727,970.703,-145.996,970.703,0.000
1741724736.072,969.727,970.215,95.703,970.215,0.000
1741724736.076,969.727,970.215,772.949,970.215,0.000
1741724736.080,969.727,970.215,898.438,970.215,0.000
1741724736.084,969.727,970.215,801.270,970.703,0.000
1741724736.088,969.727,970.215,898.926,970.703,0.000
1741724736.091,969.727,970.703,937.500,970.215,0.000
1741724736.095,969.727,970.215,949.707,970.215,0.000
1741724736.099,969.727,970.703,968.750,970.703,0.000
1741724736.103,969.727,970.703,971.191,970.215,0.000
1741724736.107,969.727,970.215,968.750,970.215,0.000
1741724736.111,970.215,971.191,972.656,970.215,0.000
1741724736.115,970.703,968.750,965.820,984.375,0.000
1741724736.119,906.738,910.645,951.660,902.832,0.000
1741724736.123,999.512,999.512,961.914,999.512,0.000
1741724736.127,188.965,152.832,962.891,614.258,0.000
1741724736.131,-1000.000,-1000.000,967.773,-810.059,0.000
1741724736.134,-983.887,-979.004,742.676,-1000.000,0.000
1741724736.138,-973.145,-975.586,496.094,-942.383,0.000
1741724736.142,-1000.000,-1000.000,515.137,-1000.000,0.000
1741724736.146,-1000.000,-1000.000,765.625,-1000.000,0.000
1741724736.150,-1000.000,-1000.000,846.191,-1000.000,0.000
1741724736.154,-1000.000,-1000.000,427.734,-1000.000,0.000
1741724736.158,-1000.000,-1000.000,359.375,-1000.000,0.000
1741724736.162,-1000.000,-1000.000,439.941,-1000.000,0.000
1741724736.166,-1000.000,-1000.000,-41.992,-1000.000,0.000
1741724736.170,-1000.000,-1000.000,-432.617,-1000.000,0.000
1741724736.173,-1000.000,-1000.000,-61.523,-1000.000,0.000
1741724736.177,-1000.000,-1000.000,144.043,-1000.000,0.000
1741724736.181,-1000.000,-1000.000,-94.238,-1000.000,0.000
1741724736.185,-1000.000,-1000.000,-265.137,-1000.000,0.000
1741724736.189,-1000.000,-1000.000,-265.625,-1000.000,0.000
1741724736.193,-1000.000,-1000.000,188.965,-1000.000,0.000
1741724736.197,-1000.000,-1000.000,236.816,-1000.000,0.000
1741724736.201,-1000.000,-1000.000,-126.465,-1000.000,0.000
1741724736.205,-969.238,-940.918,37.109,-967.773,0.000
1741724736.209,-993.164,-1000.000,124.512,-997.070,0.000
1741724736.213,-1000.000,-797.852,206.543,-1000.000,0.000
1741724736.216,236.816,620.605,62.012,254.883,0.000
1741724736.220,999.512,999.512,-229.980,999.512,0.000
1741724736.224,905.762,905.273,218.262,907.227,0.000
1741724736.228,972.168,983.398,597.656,973.145,0.000
1741724736.232,970.215,970.703,416.016,970.703,0.000
1741724736.236,969.727,970.215,504.395,970.215,0.000
1741724736.240,969.727,970.215,840.332,970.215,0.000
1741724736.244,969.727,970.215,999.512,970.215,0.000
1741724736.248,969.727,970.215,877.930,970.215,0.000
1741724736.252,969.727,970.703,780.762,970.703,0.000
1741724736.255,969.727,970.703,854.492,970.703,0.000
1741724736.259,969.727,970.215,944.824,970.215,0.000
1741724736.263,969.727,970.215,970.703,970.215,0.000
1741724736.267,970.215,970.215,914.551,970.215,0.000
1741724736.271,969.727,970.215,929.688,970.703,0.000
1741724736.275,969.727,970.703,993.164,970.215,0.000
1741724736.279,970.215,970.215,926.270,970.215,0.000
1741724736.283,969.727,970.215,688.965,970.215,0.000
1741724736.287,969.727,970.703,783.203,970.215,0.000
1741724736.291,969.727,970.703,985.840,970.215,0.000
1741724736.295,979.980,981.934,986.816,983.887,0.000
1741724736.298,897.461,896.973,846.191,913.574,0.000
1741724736.302,999.512,999.512,719.238,999.512,0.000
1741724736.306,385.254,423.340,894.531,791.504,0.000
1741724736.310,-992.676,-975.586,979.492,-614.746,0.000
1741724736.314,-1000.000,-1000.000,972.656,-1000.000,0.000
1741724736.318,-957.031,-954.102,950.684,-935.547,0.000
1741724736.322,-1000.000,-1000.000,918.945,-1000.000,0.000
1741724736.326,-1000.000,-1000.000,968.262,-1000.000,0.000
1741724736.330,-1000.000,-1000.000,974.121,-1000.000,0.000
1741724736.334,-1000.000,-1000.000,967.773,-1000.000,0.000
1741724736.338,-1000.000,-1000.000,973.633,-1000.000,0.000
1741724736.341,-1000.000,-1000.000,952.148,-1000.000,0.000
1741724736.345,-1000.000,-1000.000,999.512,-1000.000,0.000
1741724736.349,-1000.000,-1000.000,837.402,-1000.000,0.000
1741724736.353,-1000.000,-1000.000,554.199,-1000.000,0.000
1741724736.357,-1000.000,-1000.000,848.633,-1000.000,0.000
1741724736.361,-1000.000,-1000.000,948.242,-1000.000,0.000
1741724736.365,-1000.000,-1000.000,724.121,-1000.000,0.000
1741724736.369,-1000.000,-983.887,515.625,-1000.000,0.000
1741724736.373,-937.988,-964.355,486.816,-938.965,0.000
1741724736.377,-1000.000,-1000.000,767.090,-1000.000,0.000
1741724736.380,-214.844,42.969,830.566,-199.707,0.000
1741724736.384,999.512,999.512,842.773,999.512,0.000
1741724736.388,952.637,921.387,976.074,951.172,0.000
1741724736.392,942.871,961.914,961.914,944.824,0.000
1741724736.396,976.562,972.168,993.652,976.562,0.000
1741724736.400,969.727,970.703,810.059,970.215,0.000
1741724736.404,969.727,970.703,621.582,970.215,0.000
1741724736.408,969.727,970.703,815.918,970.703,0.000
1741724736.412,969.727,970.703,998.535,970.215,0.000
1741724736.416,969.727,970.215,856.934,970.215,0.000
1741724736.420,969.727,970.703,443.848,970.215,0.000
1741724736.423,969.727,970.215,579.102,970.215,0.000
1741724736.427,969.727,970.703,996.582,970.215,0.000
1741724736.431,969.727,970.703,962.891,970.215,0.000
1741724736.435,969.727,970.703,719.727,970.703,0.000
1741724736.439,969.727,970.215,717.773,970.215,0.000
1741724736.443,975.586,979.492,940.918,971.680,0.000
1741724736.447,945.312,934.082,858.398,964.355,0.000
1741724736.451,948.242,977.539,573.730,917.480,0.000
1741724736.455,999.512,971.680,623.047,999.512,0.000
1741724736.459,-179.688,-341.797,934.570,82.031,0.000
1741724736.463,-1000.000,-1000.000,999.512,-1000.000,0.000
1741724736.466,-941.406,-935.547,597.168,-969.727,0.000
1741724736.470,-998.535,-1000.000,194.824,-980.957,0.000
1741724736.474,-1000.000,-1000.000,692.383,-1000.000,0.000
1741724736.478,-1000.000,-1000.000,790.039,-1000.000,0.000
1741724736.482,-1000.000,-1000.000,58.594,-1000.000,0.000
1741724736.486,-1000.000,-1000.000,-216.797,-1000.000,0.000
1741724736.490,-1000.000,-1000.000,-28.320,-1000.000,0.000
1741724736.494,-1000.000,-1000.000,459.473,-1000.000,0.000
1741724736.498,-1000.000,-1000.000,491.211,-1000.000,0.000
1741724736.502,-1000.000,-1000.000,13.184,-1000.000,0.000
1741724736.505,-1000.000,-1000.000,-32.715,-1000.000,0.000
1741724736.509,-1000.000,-1000.000,465.332,-1000.000,0.000
1741724736.513,-940.430,-925.781,260.742,-935.547,0.000
1741724736.517,-1000.000,-1000.000,-212.402,-1000.000,0.000
1741724736.521,-799.805,-517.090,176.758,-730.957,0.000
1741724736.525,625.977,909.668,584.961,706.055,0.000
1741724736.529,999.512,999.512,267.090,999.512,0.000
1741724736.533,903.809,918.945,-194.336,907.227,0.000
1741724736.537,983.398,985.352,-29.297,984.863,0.000
1741724736.541,969.727,970.215,398.926,970.215,0.000
1741724736.545,969.727,970.703,560.059,970.215,0.000
1741724736.548,969.727,970.703,458.496,970.215,0.000
1741724736.552,969.727,970.215,525.879,970.215,0.000
1741724736.556,969.727,970.215,907.227,970.215,0.000
1741724736.560,969.727,970.703,966.309,970.215,0.000
1741724736.564,970.215,970.703,744.141,970.215,0.000
1741724736.568,969.727,970.703,822.266,970.215,0.000
1741724736.572,969.727,970.215,979.004,970.215,0.000
1741724736.576,981.934,985.352,979.980,975.586,0.000
1741724736.580,920.898,906.250,898.926,948.242,0.000
1741724736.584,999.512,999.512,571.289,946.289,0.000
1741724736.587,876.953,709.961,366.699,999.512,0.000
1741724736.591,-502.930,-725.098,654.785,-152.832,0.000
1741724736.595,-1000.000,-1000.000,832.520,-1000.000,0.000
1741724736.599,-933.105,-937.012,323.242,-944.824,0.000
1741724736.603,-1000.000,-1000.000,141.602,-996.582,0.000
1741724736.607,-1000.000,-1000.000,406.250,-1000.000,0.000
1741724736.611,-1000.000,-1000.000,593.262,-1000.000,0.000
1741724736.615,-1000.000,-1000.000,418.945,-1000.000,0.000
1741724736.619,-1000.000,-1000.000,368.164,-1000.000,0.000
1741724736.623,-1000.000,-1000.000,379.395,-1000.000,0.000
1741724736.627,-1000.000,-1000.000,429.688,-1000.000,0.000
1741724736.630,-1000.000,-1000.000,598.145,-1000.000,0.000
1741724736.634,-1000.000,-1000.000,172.363,-1000.000,0.000
1741724736.638,-1000.000,-1000.000,78.125,-1000.000,0.000
1741724736.642,-1000.000,-1000.000,470.703,-1000.000,0.000
1741724736.646,-1000.000,-1000.000,435.059,-1000.000,0.000
1741724736.650,-979.980,-971.680,78.613,-974.609,0.000
1741724736.654,-971.191,-988.281,-33.691,-982.422,0.000
1741724736.658,-1000.000,-1000.000,285.156,-1000.000,0.000
1741724736.662,99.609,208.496,543.457,166.992,0.000
1741724736.666,999.512,999.512,603.027,999.512,0.000
1741724736.670,914.551,908.203,562.500,911.621,0.000
1741724736.673,965.332,971.191,736.816,969.238,0.000
1741724736.677,970.703,970.703,900.391,971.191,0.000
1741724736.681,969.727,970.703,851.562,970.215,0.000
1741724736.685,969.727,970.703,637.207,970.215,0.000
1741724736.689,969.727,970.703,687.500,970.703,0.000
1741724736.693,969.727,970.703,979.492,970.215,0.000
1741724736.697,969.727,970.703,881.348,970.215,0.000
1741724736.701,969.727,970.703,704.590,970.703,0.000
1741724736.705,969.727,970.215,787.109,970.703,0.000
1741724736.709,969.727,970.215,975.586,970.215,0.000
1741724736.712,969.727,970.215,996.094,970.215,0.000
1741724736.716,969.727,970.215,748.047,970.215,0.000
1741724736.720,969.727,970.215,746.582,970.703,0.000
1741724736.724,969.727,971.680,988.770,970.703,0.000
1741724736.728,969.727,966.309,984.375,970.215,0.000
1741724736.732,969.727,978.027,820.312,970.215,0.000
1741724736.736,970.215,956.055,737.793,971.191,0.000
1741724736.740,970.703,913.086,909.668,969.238,0.000
1741724736.744,906.738,901.367,983.887,910.645,0.000
1741724736.748,999.512,999.512,937.500,999.512,0.000
1741724736.752,188.965,186.035,906.738,156.738,0.000
1741724736.755,-1000.000,-1000.000,962.402,-1000.000,0.000
1741724736.759,-983.887,-983.887,987.793,-979.492,0.000
1741724736.763,-973.145,-973.145,870.117,-975.586,0.000
1741724736.767,-1000.000,-1000.000,705.078,-1000.000,0.000
1741724736.771,-1000.000,-1000.000,414.062,-1000.000,0.000
1741724736.775,-1000.000,-1000.000,445.801,-1000.000,0.000
1741724736.779,-1000.000,-1000.000,909.668,-1000.000,0.000
1741724736.783,-1000.000,-1000.000,703.613,-1000.000,0.000
1741724736.787,-1000.000,-1000.000,323.242,-1000.000,0.000
1741724736.791,-1000.000,-1000.000,530.273,-1000.000,0.000
1741724736.795,-1000.000,-1000.000,682.129,-1000.000,0.000
1741724736.798,-1000.000,-1000.000,462.402,-1000.000,0.000
1741724736.802,-1000.000,-1000.000,622.070,-1000.000,0.000
1741724736.806,-1000.000,-1000.000,978.027,-1000.000,0.000
1741724736.810,-1000.000,-1000.000,902.344,-1000.000,0.000
1741724736.814,-1000.000,-1000.000,723.633,-1000.000,0.000
1741724736.818,-1000.000,-1000.000,322.266,-1000.000,0.000
1741724736.822,-1000.000,-1000.000,280.762,-1000.000,0.000
1741724736.826,-974.121,-935.059,861.816,-981.934,0.000
1741724736.830,-982.422,-1000.000,707.031,-968.262,0.000
1741724736.834,-1000.000,-726.074,299.316,-1000.000,0.000
1741724736.837,171.387,709.961,385.254,71.289,0.000
1741724736.841,999.512,999.512,668.945,999.512,0.000
1741724736.845,910.156,907.715,749.023,918.457,0.000
1741724736.849,969.238,984.863,758.789,963.379,0.000
1741724736.853,970.215,970.215,981.934,971.680,0.000
1741724736.857,969.727,970.215,962.891,970.215,0.000
1741724736.861,969.727,970.703,976.074,970.215,0.000
1741724736.865,969.727,970.703,942.383,970.703,0.000
1741724736.869,969.727,970.215,756.836,970.703,0.000
1741724736.873,969.727,970.215,797.363,970.215,0.000
1741724736.877,969.727,970.215,953.613,970.215,0.000
1741724736.880,969.727,970.703,914.551,970.215,0.000
1741724736.884,969.727,970.703,492.188,970.215,0.000
1741724736.888,969.727,970.215,607.910,970.703,0.000
1741724736.892,970.215,970.703,999.512,970.215,0.000
1741724736.896,970.703,970.703,976.074,979.004,0.000
1741724736.900,907.227,907.715,930.176,899.902,0.000
1741724736.904,999.512,999.512,862.793,999.512,0.000
1741724736.908,188.965,183.594,948.730,356.445,0.000
1741724736.912,-1000.000,-1000.000,978.516,-1000.000,0.000
1741724736.916,-983.887,-982.910,703.613,-1000.000,0.000
1741724736.919,-973.145,-973.633,135.254,-959.473,0.000
1741724736.923,-1000.000,-1000.000,125.488,-1000.000,0.000
1741724736.927,-1000.000,-1000.000,449.707,-1000.000,0.000
1741724736.931,-1000.000,-1000.000,294.922,-1000.000,0.000
1741724736.935,-1000.000,-1000.000,-202.637,-1000.000,0.000
1741724736.939,-1000.000,-1000.000,-327.637,-1000.000,0.000
1741724736.943,-1000.000,-1000.000,156.738,-1000.000,0.000
1741724736.947,-1000.000,-1000.000,344.727,-1000.000,0.000
1741724736.951,-1000.000,-1000.000,-76.660,-1000.000,0.000
1741724736.955,-1000.000,-1000.000,-425.781,-1000.000,0.000
1741724736.959,-1000.000,-1000.000,-9.277,-1000.000,0.000
1741724736.962,-1000.000,-1000.000,217.285,-1000.000,0.000
1741724736.966,-1000.000,-1000.000,-215.820,-1000.000,0.000
1741724736.970,-1000.000,-1000.000,-587.891,-1000.000,0.000
1741724736.974,-1000.000,-1000.000,-148.438,-1000.000,0.000
1741724736.978,-1000.000,-1000.000,96.680,-1000.000,0.000
1741724736.982,-937.500,-932.129,-600.586,-931.152,0.000
1741724736.986,-1000.000,-1000.000,-696.777,-1000.000,0.000
1741724736.990,-770.508,-696.289,-244.141,-648.438,0.000
1741724736.994,664.551,752.930,-32.227,787.598,0.000
1741724736.998,999.512,999.512,-262.207,999.512,0.000
1741724737.002,904.785,908.203,-462.402,911.621,0.000
1741724737.005,983.887,985.840,72.266,985.352,0.000
1741724737.009,969.727,970.703,372.559,970.215,0.000
1741724737.013,969.727,970.703,136.230,970.215,0.000
1741724737.017,969.727,970.703,-374.023,970.215,0.000
1741724737.021,969.727,970.703,-264.648,970.215,0.000
1741724737.025,969.727,970.703,60.547,970.215,0.000
1741724737.029,969.727,970.215,-14.648,970.215,0.000
1741724737.033,969.727,970.703,-156.738,970.215,0.000
1741724737.037,969.727,970.215,-169.434,970.703,0.000
1741724737.041,969.727,970.703,451.660,970.215,0.000
1741724737.044,981.445,972.656,407.715,983.398,0.000
1741724737.048,895.996,905.762,-82.031,915.039,0.000
1741724737.052,999.512,999.512,-309.082,999.512,0.000
1741724737.056,420.898,215.820,-369.141,804.199,0.000
1741724737.060,-976.074,-1000.000,65.430,-597.168,0.000
1741724737.064,-1000.000,-988.281,45.410,-1000.000,0.000
1741724737.068,-954.102,-970.703,-635.254,-935.059,0.000
1741724737.072,-1000.000,-1000.000,-725.098,-1000.000,0.000
1741724737.076,-1000.000,-1000.000,-484.863,-1000.000,0.000
1741724737.080,-1000.000,-1000.000,-773.438,-1000.000,0.000
1741724737.084,-1000.000,-1000.000,-850.586,-1000.000,0.000
1741724737.087,-1000.000,-1000.000,-657.715,-1000.000,0.000
1741724737.091,-1000.000,-1000.000,-557.617,-1000.000,0.000
1741724737.095,-1000.000,-1000.000,-522.949,-1000.000,0.000
1741724737.099,-1000.000,-1000.000,-859.863,-1000.000,0.000
1741724737.103,-1000.000,-1000.000,-1000.000,-1000.000,0.000
1741724737.107,-1000.000,-1000.000,-746.094,-1000.000,0.000
1741724737.111,-1000.000,-1000.000,-778.320,-1000.000,0.000
1741724737.115,-950.195,-954.102,-989.258,-936.523,0.000
1741724737.119,-1000.000,-1000.000,-1000.000,-1000.000,0.000
1741724737.123,-896.973,-934.082,-871.582,-721.191,0.000
1741724737.127,490.723,434.082,-755.371,704.102,0.000
1741724737.130,999.512,999.512,-430.176,999.512,0.000
1741724737.134,902.344,903.320,-404.297,908.691,0.000
1741724737.138,980.469,979.492,-605.469,984.375,0.000
1741724737.142,969.727,970.703,-117.188,970.703,0.000
1741724737.146,969.727,970.703,-8.301,970.215,0.000
1741724737.150,970.215,970.703,-477.539,970.703,0.000
1741724737.154,969.727,970.703,-428.223,970.703,0.000
1741724737.158,969.727,970.703,220.703,970.215,0.000
1741724737.162,969.727,970.215,152.344,970.215,0.000
1741724737.166,970.215,970.215,-595.215,970.703,0.000
1741724737.169,969.727,970.703,-621.094,970.703,0.000
1741724737.173,969.727,970.215,-48.828,970.215,0.000
1741724737.177,969.727,970.703,513.672,970.215,0.000
1741724737.181,969.727,970.703,644.531,970.215,0.000
1741724737.185,969.727,970.703,147.949,970.703,0.000
1741724737.189,969.727,970.703,94.727,970.215,0.000
1741724737.193,969.727,970.215,460.449,970.215,0.000
1741724737.197,969.727,970.215,394.531,970.215,0.000
1741724737.201,969.727,970.703,129.395,970.215,0.000
1741724737.205,969.727,969.238,4.395,970.703,0.000
1741724737.209,969.727,969.727,283.691,970.703,0.000
1741724737.212,969.727,970.703,460.938,970.703,0.000
1741724737.216,969.727,970.215,394.043,970.215,0.000
1741724737.220,980.957,985.352,281.250,981.934,0.000
1741724737.224,925.293,909.180,639.648,923.828,0.000
1741724737.228,995.605,999.512,999.512,999.512,0.000
1741724737.232,917.480,749.023,704.102,896.973,0.000
1741724737.236,-441.895,-679.199,153.320,-470.703,0.000
1741724737.240,-1000.000,-1000.000,258.789,-1000.000,0.000
1741724737.244,-933.105,-935.547,338.867,-933.594,0.000
1741724737.248,-1000.000,-1000.000,-259.766,-1000.000,0.000
1741724737.251,-1000.000,-1000.000,-697.266,-1000.000,0.000
1741724737.255,-1000.000,-1000.000,-770.020,-1000.000,0.000
1741724737.259,-1000.000,-1000.000,-508.789,-1000.000,0.000
1741724737.263,-1000.000,-1000.000,-597.656,-1000.000,0.000
1741724737.267,-1000.000,-1000.000,-967.285,-1000.000,0.000
1741724737.271,-1000.000,-1000.000,-742.188,-1000.000,0.000
1741724737.275,-1000.000,-1000.000,-225.098,-1000.000,0.000
1741724737.279,-1000.000,-1000.000,-471.680,-1000.000,0.000
1741724737.283,-1000.000,-1000.000,-1000.000,-1000.000,0.000
1741724737.287,-1000.000,-1000.000,-839.844,-1000.000,0.000
1741724737.291,-1000.000,-1000.000,-600.098,-1000.000,0.000
1741724737.294,-1000.000,-1000.000,-754.395,-1000.000,0.000
1741724737.298,-1000.000,-1000.000,-923.340,-1000.000,0.000
1741724737.302,-1000.000,-1000.000,-1000.000,-1000.000,0.000
1741724737.306,-1000.000,-1000.000,-951.660,-1000.000,0.000
1741724737.310,-1000.000,-1000.000,-964.844,-1000.000,0.000
1741724737.314,-1000.000,-1000.000,-1000.000,-1000.000,0.000
1741724737.318,-1000.000,-1000.000,-1000.000,-1000.000,0.000
1741724737.322,-1000.000,-1000.000,-975.586,-1000.000,0.000
1741724737.326,-932.129,-928.711,-947.266,-927.246,0.000
1741724737.330,-1000.000,-1000.000,-1000.000,-1000.000,0.000
1741724737.334,-310.059,-383.301,-1000.000,-584.473,0.000
1741724737.337,999.512,979.980,-1000.000,855.957,0.000
1741724737.341,968.750,981.934,-990.723,999.512,0.000
1741724737.345,935.547,930.176,-976.074,914.551,0.000
1741724737.349,979.004,981.934,-985.840,985.840,0.000
1741724737.353,970.215,970.703,-1000.000,970.703,0.000
1741724737.357,970.215,970.703,-771.973,970.703,0.000
1741724737.361,969.727,970.215,-404.297,970.215,0.000
1741724737.365,969.727,970.703,-412.598,970.703,0.000
1741724737.369,969.727,970.703,-472.168,970.215,0.000
1741724737.373,969.727,970.215,-392.090,970.215,0.000
1741724737.376,969.727,970.703,-229.980,970.703,0.000
1741724737.380,969.727,970.703,-402.832,970.703,0.000
1741724737.384,970.215,970.703,-789.062,970.215,0.000
1741724737.388,970.215,970.703,-607.910,970.215,0.000
1741724737.392,969.727,970.215,-73.730,970.215,0.000
1741724737.396,969.727,970.215,90.820,970.703,0.000
1741724737.400,969.727,970.703,33.691,970.215,0.000
1741724737.404,969.727,970.703,85.449,970.215,0.000
1741724737.408,969.727,970.215,177.734,970.703,0.000
1741724737.412,982.422,981.934,606.934,977.051,0.000
1741724737.416,919.922,896.973,470.215,942.871,0.000
1741724737.419,999.512,999.512,-355.957,956.543,0.000
1741724737.423,862.305,431.152,-396.484,999.512,0.000
1741724737.427,-519.531,-969.238,-172.363,-222.656,0.000
1741724737.431,-1000.000,-1000.000,-365.723,-1000.000,0.000
1741724737.435,-934.082,-953.613,-732.910,-940.430,0.000
1741724737.439,-1000.000,-1000.000,-939.941,-1000.000,0.000
1741724737.443,-1000.000,-1000.000,-960.938,-1000.000,0.000
1741724737.447,-1000.000,-1000.000,-1000.000,-1000.000,0.000
1741724737.451,-1000.000,-1000.000,-986.328,-1000.000,0.000
1741724737.455,-1000.000,-1000.000,-1000.000,-1000.000,0.000
1741724737.459,-1000.000,-1000.000,-758.789,-1000.000,0.000
1741724737.462,-1000.000,-1000.000,-647.461,-1000.000,0.000
1741724737.466,-1000.000,-1000.000,-981.934,-1000.000,0.000
1741724737.470,-1000.000,-1000.000,-1000.000,-1000.000,0.000
1741724737.474,-1000.000,-1000.000,-907.715,-1000.000,0.000
1741724737.478,-1000.000,-1000.000,-745.117,-1000.000,0.000
1741724737.482,-931.152,-933.594,-942.871,-929.688,0.000
1741724737.486,-1000.000,-1000.000,-997.070,-1000.000,0.000
1741724737.490,-686.035,-721.191,-681.641,-595.215,0.000
1741724737.494,763.672,726.074,-525.879,833.496,0.000
1741724737.498,999.512,999.512,-681.152,999.512,0.000
1741724737.501,908.203,907.227,-698.242,914.551,0.000
1741724737.505,985.840,985.840,-286.621,984.863,0.000
1741724737.509,969.727,970.703,251.953,970.703,0.000
1741724737.513,969.727,970.703,423.340,970.215,0.000
1741724737.517,969.727,970.703,82.031,970.703,0.000
1741724737.521,970.215,970.703,-66.895,970.215,0.000
1741724737.525,969.727,970.215,506.348,970.215,0.000
1741724737.529,969.727,970.703,592.285,970.703,0.000
1741724737.533,969.727,970.215,120.117,970.215,0.000
1741724737.537,969.727,970.703,76.660,970.215,0.000
1741724737.541,970.215,970.215,486.816,970.215,0.000
1741724737.544,969.727,970.215,798.828,970.215,0.000
1741724737.548,969.727,970.703,659.180,970.215,0.000
1741724737.552,969.727,970.215,760.742,970.703,0.000
1741724737.556,969.727,970.215,999.512,970.703,0.000
1741724737.560,969.727,970.703,915.527,970.703,0.000
1741724737.564,969.727,970.215,770.996,970.215,0.000
1741724737.568,969.727,970.703,626.953,970.703,0.000
1741724737.572,969.727,970.703,801.270,970.215,0.000
1741724737.576,979.004,985.840,999.512,973.145,0.000
1741724737.580,932.129,899.414,922.852,956.543,0.000
1741724737.584,979.004,999.512,644.043,930.664,0.000
1741724737.587,966.797,610.352,587.891,999.512,0.000
1741724737.591,-352.051,-836.914,951.172,-39.551,0.000
1741724737.595,-1000.000,-1000.000,645.996,-1000.000,0.000
1741724737.599,-935.059,-940.918,362.793,-955.078,0.000
1741724737.603,-1000.000,-1000.000,714.355,-989.746,0.000
1741724737.607,-1000.000,-1000.000,495.605,-1000.000,0.000
1741724737.611,-1000.000,-1000.000,187.500,-1000.000,0.000
1741724737.615,-1000.000,-1000.000,-51.270,-1000.000,0.000
1741724737.619,-1000.000,-1000.000,-205.078,-1000.000,0.000
1741724737.623,-1000.000,-1000.000,-127.930,-1000.000,0.000
1741724737.626,-1000.000,-1000.000,295.410,-1000.000,0.000
1741724737.630,-1000.000,-1000.000,310.547,-1000.000,0.000
1741724737.634,-1000.000,-1000.000,-317.871,-1000.000,0.000
1741724737.638,-1000.000,-1000.000,-166.504,-1000.000,0.000
1741724737.642,-1000.000,-1000.000,133.301,-1000.000,0.000
1741724737.646,-1000.000,-1000.000,261.719,-1000.000,0.000
1741724737.650,-1000.000,-1000.000,143.555,-1000.000,0.000
1741724737.654,-1000.000,-1000.000,-263.672,-1000.000,0.000
1741724737.658,-1000.000,-1000.000,-20.996,-1000.000,0.000
1741724737.662,-1000.000,-1000.000,-88.379,-1000.000,0.000
1741724737.665,-1000.000,-1000.000,-399.902,-1000.000,0.000
1741724737.669,-999.512,-994.141,-218.262,-1000.000,0.000
1741724737.673,-939.453,-947.266,17.090,-937.500,0.000
1741724737.677,-1000.000,-1000.000,125.977,-1000.000,0.000
1741724737.681,-194.336,-108.887,132.812,-219.238,0.000
1741724737.685,999.512,999.512,-90.332,999.512,0.000
1741724737.689,949.707,938.965,-64.941,954.102,0.000
1741724737.693,944.336,951.172,457.520,943.359,0.000
1741724737.697,976.074,974.609,639.648,977.051,0.000
1741724737.701,969.727,970.703,518.555,970.703,0.000
1741724737.705,969.727,970.215,480.957,970.703,0.000
1741724737.708,969.727,970.703,603.027,970.215,0.000
1741724737.712,969.727,970.703,782.227,970.215,0.000
1741724737.716,969.727,970.703,437.012,970.215,0.000
1741724737.720,969.727,970.703,578.125,970.215,0.000
1741724737.724,969.727,970.703,967.773,970.215,0.000
1741724737.728,969.727,970.215,879.883,970.703,0.000
1741724737.732,969.727,970.703,665.527,970.215,0.000
1741724737.736,969.727,970.215,625.000,970.215,0.000
1741724737.740,969.727,970.215,925.293,970.703,0.000
1741724737.744,969.727,970.703,996.582,970.215,0.000
1741724737.748,969.727,970.215,951.172,970.215,0.000
1741724737.751,969.727,970.215,700.195,970.703,0.000
1741724737.755,983.887,984.863,771.484,982.910,0.000
1741724737.759,913.086,899.414,999.512,920.410,0.000
1741724737.763,999.512,999.512,903.809,999.512,0.000
1741724737.767,804.199,560.547,526.367,867.188,0.000
1741724737.771,-610.840,-872.070,656.250,-516.113,0.000
1741724737.775,-1000.000,-1000.000,974.121,-1000.000,0.000
1741724737.779,-933.594,-944.336,591.309,-933.594,0.000
1741724737.783,-1000.000,-1000.000,56.641,-1000.000,0.000
1741724737.787,-1000.000,-1000.000,288.574,-1000.000,0.000
1741724737.791,-1000.000,-1000.000,608.887,-1000.000,0.000
1741724737.794,-1000.000,-1000.000,644.043,-1000.000,0.000
1741724737.798,-1000.000,-1000.000,535.156,-1000.000,0.000
1741724737.802,-1000.000,-1000.000,90.332,-1000.000,0.000
1741724737.806,-1000.000,-1000.000,96.191,-1000.000,0.000
1741724737.810,-1000.000,-1000.000,257.812,-1000.000,0.000
1741724737.814,-1000.000,-1000.000,39.062,-1000.000,0.000
1741724737.818,-1000.000,-1000.000,-326.660,-1000.000,0.000
1741724737.822,-1000.000,-1000.000,-301.758,-1000.000,0.000
1741724737.826,-1000.000,-990.234,-153.320,-1000.000,0.000
1741724737.830,-931.641,-953.613,-175.781,-931.641,0.000
1741724737.833,-1000.000,-1000.000,-378.418,-1000.000,0.000
1741724737.837,-312.988,-48.828,-302.734,-319.336,0.000
1741724737.841,999.512,999.512,-113.281,999.512,0.000
1741724737.845,968.750,931.641,-353.516,970.703,0.000
1741724737.849,935.059,956.055,-590.820,935.059,0.000
1741724737.853,979.492,973.633,-157.227,979.980,0.000
1741724737.857,969.727,970.703,213.867,970.215,0.000
1741724737.861,969.727,970.703,50.781,970.215,0.000
1741724737.865,969.727,970.215,-487.305,970.703,0.000
1741724737.869,969.727,970.703,-723.633,970.703,0.000
1741724737.873,969.727,970.703,-281.250,970.703,0.000
1741724737.876,969.727,970.703,92.285,970.215,0.000
1741724737.880,969.727,970.215,367.188,970.703,0.000
1741724737.884,969.727,970.215,403.320,970.215,0.000
1741724737.888,969.727,970.215,85.449,970.215,0.000
1741724737.892,969.727,970.215,142.578,970.703,0.000
1741724737.896,969.727,970.703,433.594,970.215,0.000
1741724737.900,969.727,970.215,356.934,970.215,0.000
1741724737.904,969.727,970.703,136.719,970.703,0.000
1741724737.908,969.727,970.703,535.645,970.215,0.000
1741724737.912,984.375,983.887,789.062,979.492,0.000
1741724737.916,908.691,896.484,363.281,935.059,0.000
1741724737.919,999.512,999.512,274.414,975.098,0.000
1741724737.923,754.883,495.605,395.996,978.516,0.000
1741724737.927,-672.852,-931.152,727.051,-325.195,0.000
1741724737.931,-1000.000,-1000.000,875.488,-1000.000,0.000
1741724737.935,-935.059,-948.242,283.691,-936.523,0.000
1741724737.939,-1000.000,-1000.000,30.273,-1000.000,0.000
1741724737.943,-1000.000,-1000.000,121.582,-1000.000,0.000
1741724737.947,-1000.000,-1000.000,104.492,-1000.000,0.000
1741724737.951,-1000.000,-1000.000,-214.844,-1000.000,0.000
1741724737.955,-1000.000,-1000.000,-537.598,-1000.000,0.000
1741724737.958,-1000.000,-1000.000,-593.262,-1000.000,0.000
1741724737.962,-1000.000,-1000.000,-523.438,-1000.000,0.000
1741724737.966,-1000.000,-1000.000,-438.965,-1000.000,0.000
1741724737.970,-1000.000,-1000.000,-480.469,-1000.000,0.000
1741724737.974,-1000.000,-1000.000,41.504,-1000.000,0.000
1741724737.978,-1000.000,-1000.000,164.551,-1000.000,0.000
1741724737.982,-1000.000,-1000.000,-450.684,-1000.000,0.000
1741724737.986,-1000.000,-1000.000,-579.102,-1000.000,0.000
1741724737.990,-1000.000,-1000.000,-381.836,-1000.000,0.000
1741724737.994,-1000.000,-1000.000,-322.266,-1000.000,0.000
1741724737.998,-1000.000,-1000.000,-508.301,-1000.000,0.000
1741724738.001,-1000.000,-1000.000,-581.055,-1000.000,0.000
1741724738.005,-1000.000,-1000.000,-320.801,-1000.000,0.000
1741724738.009,-1000.000,-1000.000,-67.871,-1000.000,0.000
1741724738.013,-929.688,-937.012,-370.117,-929.199,0.000
1741724738.017,-1000.000,-1000.000,-736.816,-1000.000,0.000
1741724738.021,-352.051,-227.051,-493.164,-368.652,0.000
1741724738.025,993.164,999.512,125.000,985.352,0.000
1741724738.029,975.586,955.566,45.898,979.492,0.000
1741724738.033,932.129,942.383,-458.008,931.152,0.000
1741724738.037,980.469,977.539,-239.258,981.445,0.000
1741724738.040,969.727,970.215,299.805,970.703,0.000
1741724738.044,969.727,970.703,505.371,970.215,0.000
1741724738.048,969.727,970.703,51.270,970.215,0.000
1741724738.052,969.727,970.703,-32.227,970.703,0.000
1741724738.056,969.727,970.703,393.066,970.703,0.000
1741724738.060,969.727,970.703,629.883,970.215,0.000
1741724738.064,969.727,970.703,369.629,970.215,0.000
1741724738.068,970.215,970.703,300.293,970.215,0.000
1741724738.072,969.727,970.703,686.035,970.215,0.000
1741724738.076,969.727,970.703,839.844,970.215,0.000
1741724738.080,969.727,970.703,940.918,970.703,0.000
1741724738.083,969.727,970.703,837.891,970.703,0.000
1741724738.087,970.215,971.191,641.113,970.215,0.000
1741724738.091,970.703,970.703,686.035,971.191,0.000
1741724738.095,906.738,908.691,628.906,907.715,0.000
1741724738.099,999.512,999.512,386.719,999.512,0.000
1741724738.103,188.965,177.734,493.652,189.453,0.000
1741724738.107,-1000.000,-1000.000,653.809,-1000.000,0.000
1741724738.111,-983.887,-982.422,596.191,-983.887,0.000
1741724738.115,-973.145,-974.121,726.562,-973.145,0.000
1741724738.119,-1000.000,-1000.000,803.223,-1000.000,0.000
1741724738.123,-1000.000,-1000.000,556.641,-1000.000,0.000
1741724738.126,-1000.000,-1000.000,594.238,-1000.000,0.000
1741724738.130,-1000.000,-1000.000,197.754,-1000.000,0.000
1741724738.134,-1000.000,-1000.000,-58.594,-1000.000,0.000
1741724738.138,-1000.000,-1000.000,354.492,-1000.000,0.000
1741724738.142,-1000.000,-1000.000,418.457,-1000.000,0.000
1741724738.146,-1000.000,-1000.000,28.809,-1000.000,0.000
1741724738.150,-1000.000,-1000.000,-279.785,-1000.000,0.000
1741724738.154,-989.746,-968.750,-46.387,-1000.000,0.000
1741724738.158,-954.102,-994.629,288.574,-937.500,0.000
1741724738.162,-1000.000,-1000.000,473.145,-1000.000,0.000
1741724738.165,-41.016,241.211,156.738,-216.797,0.000
1741724738.169,999.512,999.512,-346.680,999.512,0.000
1741724738.173,929.688,907.227,-146.973,953.613,0.000
1741724738.177,955.566,972.656,143.555,943.359,0.000
1741724738.181,972.656,970.703,33.203,977.539,0.000
1741724738.185,969.727,970.703,-178.711,970.703,0.000
1741724738.189,969.727,970.703,390.137,970.215,0.000
1741724738.193,969.727,970.703,717.773,970.215,0.000
1741724738.197,969.727,970.215,230.957,970.215,0.000
1741724738.201,970.215,970.703,38.574,970.703,0.000
1741724738.205,969.727,970.703,237.305,970.215,0.000
1741724738.208,969.727,970.215,554.199,970.215,0.000
1741724738.212,969.727,970.215,578.125,970.215,0.000
1741724738.216,969.727,970.215,85.449,970.703,0.000
1741724738.220,970.215,970.703,-1.953,972.168,0.000
1741724738.224,969.727,970.703,281.250,962.402,0.000
1741724738.228,908.203,908.203,268.555,922.363,0.000
1741724738.232,999.512,999.512,206.055,999.512,0.000
1741724738.236,175.781,183.105,185.059,55.176,0.000
1741724738.240,-1000.000,-1000.000,375.000,-1000.000,0.000
1741724738.244,-981.934,-982.910,416.992,-968.262,0.000
1741724738.248,-974.121,-973.633,169.922,-982.422,0.000
1741724738.251,-1000.000,-1000.000,-166.016,-1000.000,0.000
1741724738.255,-1000.000,-1000.000,107.910,-1000.000,0.000
1741724738.259,-1000.000,-1000.000,346.191,-1000.000,0.000
1741724738.263,-1000.000,-1000.000,-117.676,-1000.000,0.000
1741724738.267,-1000.000,-1000.000,-595.215,-1000.000,0.000
1741724738.271,-1000.000,-1000.000,-726.074,-1000.000,0.000
1741724738.275,-1000.000,-1000.000,-578.125,-1000.000,0.000
1741724738.279,-1000.000,-1000.000,-631.836,-1000.000,0.000
1741724738.283,-1000.000,-1000.000,-710.938,-1000.000,0.000
1741724738.287,-1000.000,-1000.000,-785.156,-1000.000,0.000
1741724738.290,-1000.000,-1000.000,-520.020,-1000.000,0.000
1741724738.294,-1000.000,-1000.000,-440.918,-1000.000,0.000
1741724738.298,-926.758,-926.270,-858.398,-928.223,0.000
1741724738.302,-1000.000,-1000.000,-842.285,-1000.000,0.000
1741724738.306,-617.188,-491.211,-398.926,-609.375,0.000
1741724738.310,838.867,923.340,-312.012,834.961,0.000
1741724738.314,999.512,999.512,-514.160,999.512,0.000
1741724738.318,911.133,921.387,-762.695,913.086,0.000
1741724738.322,985.840,984.863,-643.555,985.840,0.000
1741724738.326,969.727,970.703,29.297,970.215,0.000
1741724738.330,969.727,970.703,96.191,970.703,0.000
1741724738.333,969.727,970.215,-312.500,970.215,0.000
1741724738.337,969.727,970.703,-85.449,970.215,0.000
1741724738.341,969.727,970.703,199.219,970.703,0.000
1741724738.345,969.727,970.703,89.844,970.703,0.000
1741724738.349,969.727,970.215,239.746,970.215,0.000
1741724738.353,969.727,970.215,249.512,970.215,0.000
1741724738.357,969.727,970.215,305.176,970.703,0.000
1741724738.361,969.727,970.703,560.059,970.215,0.000
1741724738.365,969.727,970.703,343.262,970.703,0.000
1741724738.369,969.727,970.703,157.227,970.703,0.000
1741724738.372,969.727,970.703,537.598,970.215,0.000
1741724738.376,969.727,970.703,839.844,970.703,0.000
1741724738.380,969.727,970.703,539.062,970.703,0.000
1741724738.384,969.727,970.703,227.539,970.215,0.000
1741724738.388,979.004,985.840,474.121,975.098,0.000
1741724738.392,934.570,899.902,708.008,950.195,0.000
1741724738.396,973.145,999.512,791.992,941.406,0.000
1741724738.400,983.398,616.211,838.867,999.512,0.000
1741724738.404,-322.266,-830.566,601.562,-123.535,0.000
1741724738.408,-1000.000,-1000.000,798.828,-1000.000,0.000
1741724738.412,-935.547,-940.918,828.613,-946.777,0.000
1741724738.415,-1000.000,-1000.000,491.211,-994.629,0.000
1741724738.419,-1000.000,-1000.000,286.133,-1000.000,0.000
1741724738.423,-1000.000,-1000.000,243.164,-1000.000,0.000
1741724738.427,-1000.000,-1000.000,251.953,-1000.000,0.000
1741724738.431,-1000.000,-1000.000,-1.953,-1000.000,0.000
1741724738.435,-1000.000,-1000.000,-299.316,-1000.000,0.000
1741724738.439,-1000.000,-1000.000,-205.566,-1000.000,0.000
1741724738.443,-1000.000,-1000.000,369.629,-1000.000,0.000
1741724738.447,-1000.000,-1000.000,512.695,-1000.000,0.000
1741724738.451,-1000.000,-1000.000,-37.109,-1000.000,0.000
1741724738.454,-1000.000,-1000.000,118.652,-1000.000,0.000
1741724738.458,-1000.000,-1000.000,453.125,-1000.000,0.000
1741724738.462,-1000.000,-1000.000,377.441,-999.023,0.000
1741724738.466,-937.500,-937.500,302.734,-940.430,0.000
1741724738.470,-1000.000,-1000.000,308.594,-1000.000,0.000
1741724738.474,-219.727,-219.238,361.328,-188.965,0.000
1741724738.478,999.512,999.512,171.387,999.512,0.000
1741724738.482,953.613,954.102,-17.090,950.195,0.000
1741724738.486,942.383,943.359,96.191,945.312,0.000
1741724738.490,976.562,977.539,706.055,976.562,0.000
1741724738.494,969.727,970.703,939.453,970.215,0.000
1741724738.497,969.727,970.703,373.047,970.215,0.000
1741724738.501,985.840,977.539,202.637,985.840,0.000
1741724738.505,900.391,900.391,344.238,901.367,0.000
1741724738.509,999.512,999.512,433.594,999.512,0.000
1741724738.513,647.949,319.824,241.699,635.742,0.000
1741724738.517,-802.246,-1000.000,-22.461,-808.105,0.000
1741724738.521,-1000.000,-1000.000,117.676,-1000.000,0.000
1741724738.525,-938.965,-962.402,19.531,-939.941,0.000
1741724738.529,-1000.000,-1000.000,270.020,-1000.000,0.000
1741724738.533,-1000.000,-1000.000,168.457,-1000.000,0.000
1741724738.537,-1000.000,-1000.000,227.539,-1000.000,0.000
1741724738.540,-1000.000,-1000.000,564.453,-1000.000,0.000
1741724738.544,-1000.000,-1000.000,125.977,-1000.000,0.000
1741724738.548,-1000.000,-1000.000,-365.234,-1000.000,0.000
1741724738.552,-1000.000,-1000.000,-545.410,-1000.000,0.000
1741724738.556,-1000.000,-1000.000,-478.027,-1000.000,0.000
1741724738.560,-1000.000,-1000.000,-354.004,-1000.000,0.000
1741724738.564,-1000.000,-1000.000,-650.391,-1000.000,0.000
1741724738.568,-1000.000,-1000.000,-977.539,-1000.000,0.000
1741724738.572,-994.141,-975.586,-611.328,-1000.000,0.000
1741724738.576,-947.266,-979.980,-207.520,-937.988,0.000
1741724738.579,-1000.000,-1000.000,-285.156,-1000.000,0.000
1741724738.583,-108.398,153.809,-447.266,-212.402,0.000
1741724738.587,999.512,999.512,-138.672,999.512,0.000
1741724738.591,937.988,912.109,546.387,953.125,0.000
1741724738.595,951.172,968.750,111.816,943.848,0.000
1741724738.599,974.121,971.191,-468.750,977.051,0.000
1741724738.603,969.727,970.215,-158.691,970.703,0.000
1741724738.607,969.727,970.703,104.980,970.215,0.000
1741724738.611,969.727,970.703,159.180,970.703,0.000
1741724738.615,969.727,970.703,94.727,970.215,0.000
1741724738.619,969.727,970.703,47.852,970.215,0.000
1741724738.622,969.727,970.215,145.020,970.215,0.000
1741724738.626,969.727,970.703,356.934,970.215,0.000
1741724738.630,969.727,970.703,624.023,970.703,0.000
1741724738.634,969.727,970.703,466.309,970.215,0.000
1741724738.638,969.727,970.215,209.473,970.703,0.000
1741724738.642,969.727,970.215,561.035,970.703,0.000
1741724738.646,969.727,970.703,471.191,970.215,0.000
1741724738.650,969.727,970.703,-69.336,970.215,0.000
1741724738.654,969.727,970.703,107.422,970.703,0.000
1741724738.658,985.352,981.934,605.957,985.352,0.000
1741724738.661,897.949,896.973,549.805,906.738,0.000
1741724738.665,999.512,999.512,269.043,999.512,0.000
1741724738.669,604.004,426.270,125.488,721.680,0.000
1741724738.673,-846.680,-972.656,418.457,-712.891,0.000
1741724738.677,-1000.000,-1000.000,910.645,-1000.000,0.000
1741724738.681,-940.918,-953.613,921.387,-936.523,0.000
1741724738.685,-1000.000,-1000.000,594.238,-1000.000,0.000
1741724738.689,-1000.000,-1000.000,325.684,-1000.000,0.000
1741724738.693,-1000.000,-1000.000,337.402,-1000.000,0.000
1741724738.697,-1000.000,-1000.000,319.824,-1000.000,0.000
1741724738.701,-1000.000,-1000.000,195.801,-1000.000,0.000
1741724738.704,-1000.000,-1000.000,-28.320,-1000.000,0.000
1741724738.708,-1000.000,-1000.000,1.953,-1000.000,0.000
1741724738.712,-1000.000,-1000.000,-88.379,-1000.000,0.000
1741724738.716,-1000.000,-1000.000,-571.289,-1000.000,0.000
1741724738.720,-1000.000,-1000.000,-648.438,-1000.000,0.000
1741724738.724,-1000.000,-1000.000,-203.125,-1000.000,0.000
1741724738.728,-1000.000,-1000.000,54.199,-1000.000,0.000
1741724738.732,-1000.000,-1000.000,-488.281,-1000.000,0.000
1741724738.736,-1000.000,-1000.000,-797.852,-1000.000,0.000
1741724738.740,-1000.000,-1000.000,-304.688,-1000.000,0.000
1741724738.743,-1000.000,-1000.000,-319.824,-1000.000,0.000
1741724738.747,-1000.000,-1000.000,-648.438,-1000.000,0.000
1741724738.751,-1000.000,-1000.000,-576.172,-1000.000,0.000
1741724738.755,-1000.000,-1000.000,-358.887,-1000.000,0.000
1741724738.759,-1000.000,-1000.000,-145.020,-1000.000,0.000
1741724738.763,-964.355,-952.637,-571.777,-960.938,0.000
1741724738.767,-1000.000,-1000.000,-941.406,-1000.000,0.000
1741724738.771,-1000.000,-918.945,-506.836,-979.980,0.000
1741724738.775,301.758,453.613,-282.715,348.633,0.000
1741724738.779,999.512,999.512,-600.586,999.512,0.000
1741724738.783,904.297,903.809,-869.629,905.273,0.000
1741724738.786,974.609,979.980,-632.324,976.562,0.000
1741724738.790,970.215,970.215,-108.887,970.703,0.000
1741724738.794,969.727,970.215,144.531,970.703,0.000
1741724738.798,969.727,970.215,-12.695,970.215,0.000
1741724738.802,969.727,970.703,-128.906,970.215,0.000
1741724738.806,969.727,970.703,217.773,970.215,0.000
1741724738.810,969.727,970.703,648.438,970.703,0.000
1741724738.814,969.727,970.703,783.691,970.703,0.000
1741724738.818,970.215,970.703,614.258,970.215,0.000
1741724738.822,969.727,970.703,670.898,970.215,0.000
1741724738.825,969.727,970.215,707.031,970.215,0.000
1741724738.829,969.727,970.215,578.613,970.703,0.000
1741724738.833,969.727,970.703,458.984,970.215,0.000
1741724738.837,969.727,970.703,369.141,970.215,0.000
1741724738.841,969.727,970.703,448.242,970.703,0.000
1741724738.845,969.727,970.703,485.840,970.703,0.000
1741724738.849,969.727,970.215,456.543,970.703,0.000
1741724738.853,969.727,970.703,310.547,970.703,0.000
1741724738.857,969.727,970.703,438.965,970.703,0.000
1741724738.861,969.727,970.215,697.266,970.703,0.000
1741724738.865,984.375,984.863,780.762,981.445,0.000
1741724738.868,911.133,895.996,907.227,926.758,0.000
1741724738.872,999.512,999.512,828.125,995.117,0.000
1741724738.876,781.250,515.625,735.840,918.945,0.000
1741724738.880,-640.625,-921.875,644.043,-433.105,0.000
1741724738.884,-1000.000,-1000.000,188.965,-1000.000,0.000
1741724738.888,-934.082,-946.777,197.266,-934.082,0.000
1741724738.892,-1000.000,-1000.000,151.367,-1000.000,0.000
1741724738.896,-1000.000,-1000.000,-373.047,-1000.000,0.000
1741724738.900,-1000.000,-1000.000,-324.707,-1000.000,0.000
1741724738.904,-1000.000,-1000.000,-118.652,-1000.000,0.000
1741724738.908,-1000.000,-1000.000,-69.336,-1000.000,0.000
1741724738.911,-1000.000,-1000.000,150.391,-1000.000,0.000
1741724738.915,-1000.000,-1000.000,236.328,-1000.000,0.000
1741724738.919,-1000.000,-1000.000,-146.484,-1000.000,0.000
1741724738.923,-1000.000,-1000.000,-99.609,-1000.000,0.000
1741724738.927,-1000.000,-1000.000,80.566,-1000.000,0.000
1741724738.931,-1000.000,-1000.000,-281.250,-1000.000,0.000
1741724738.935,-1000.000,-1000.000,-619.141,-1000.000,0.000
1741724738.939,-1000.000,-1000.000,-520.020,-1000.000,0.000
1741724738.943,-1000.000,-1000.000,-149.414,-1000.000,0.000
1741724738.947,-1000.000,-996.094,-9.766,-999.023,0.000
1741724738.951,-937.500,-944.336,-345.215,-940.430,0.000
1741724738.954,-1000.000,-1000.000,-365.234,-1000.000,0.000
1741724738.958,-219.727,-139.160,139.160,-183.105,0.000
1741724738.962,999.512,999.512,85.938,999.512,0.000
1741724738.966,953.613,942.871,-297.852,949.219,0.000
1741724738.970,942.383,949.219,-5.859,945.801,0.000
1741724738.974,976.562,975.098,221.191,976.074,0.000
1741724738.978,969.727,970.703,335.449,970.215,0.000
1741724738.982,969.727,970.703,468.262,970.703,0.000
1741724738.986,969.727,970.215,439.453,970.703,0.000
1741724738.990,969.727,970.703,603.027,970.215,0.000
1741724738.993,969.727,970.703,748.535,970.703,0.000
1741724738.997,969.727,970.703,785.156,970.703,0.000
1741724739.001,969.727,970.703,602.539,970.215,0.000
1741724739.005,982.422,973.145,709.961,983.887,0.000
1741724739.009,895.508,904.785,999.512,895.996,0.000
1741724739.013,999.512,999.512,890.137,999.512,0.000
1741724739.017,451.660,231.445,571.289,486.816,0.000
1741724739.021,-961.426,-1000.000,413.086,-938.965,0.000
1741724739.025,-1000.000,-990.723,482.422,-1000.000,0.000
1741724739.029,-951.660,-969.727,584.961,-948.730,0.000
1741724739.033,-1000.000,-1000.000,302.246,-1000.000,0.000
1741724739.036,-1000.000,-1000.000,65.918,-1000.000,0.000
1741724739.040,-1000.000,-1000.000,323.730,-1000.000,0.000
1741724739.044,-1000.000,-1000.000,197.754,-1000.000,0.000
1741724739.048,-1000.000,-1000.000,-350.586,-1000.000,0.000
1741724739.052,-1000.000,-1000.000,-194.824,-1000.000,0.000
1741724739.056,-1000.000,-1000.000,373.047,-1000.000,0.000
1741724739.060,-1000.000,-1000.000,109.863,-1000.000,0.000
1741724739.064,-1000.000,-1000.000,-219.727,-1000.000,0.000
1741724739.068,-1000.000,-1000.000,-212.402,-1000.000,0.000
1741724739.072,-1000.000,-1000.000,-110.352,-1000.000,0.000
1741724739.075,-1000.000,-1000.000,89.844,-1000.000,0.000
1741724739.079,0.000,-937.500,114.746,-927.734,0.000
1741724739.083,0.000,-1000.000,47.363,-1000.000,0.000
1741724739.087,0.000,-219.238,60.547,-416.992,0.000
1741724739.091,0.000,999.512,371.582,962.402,0.000
1741724739.095,0.000,954.102,459.473,988.281,0.000
1741724739.099,0.000,943.359,640.137,927.246,0.000
1741724739.103,0.000,977.539,960.938,982.422,0.000
1741724739.107,0.000,970.215,982.910,970.703,0.000
1741724739.111,0.000,970.703,800.781,970.215,0.000
1741724739.115,0.000,970.703,619.629,970.215,0.000
1741724739.118,0.000,970.215,491.211,970.703,0.000
1741724739.122,0.000,970.703,549.316,970.703,0.000
1741724739.126,969.727,970.703,477.539,970.215,0.000
1741724739.130,969.727,970.215,236.816,970.703,0.000
1741724739.134,969.727,970.703,170.410,970.703,0.000
1741724739.138,969.727,970.703,309.570,970.703,0.000
1741724739.142,969.727,970.215,598.145,970.215,0.000
1741724739.146,969.727,970.703,735.840,970.703,0.000
1741724739.150,969.727,970.215,789.551,970.703,0.000
1741724739.154,969.727,970.215,599.609,970.703,0.000
1741724739.157,969.727,970.215,347.168,970.703,0.000
1741724739.161,969.727,970.703,331.055,970.215,0.000
1741724739.165,969.727,970.703,194.824,970.703,0.000
1741724739.169,969.727,970.703,115.234,970.703,0.000
1741724739.173,970.703,971.191,222.168,971.191,0.000
1741724739.177,907.227,907.715,166.992,907.715,0.000
1741724739.181,999.512,999.512,80.078,999.512,0.000
1741724739.185,188.965,189.453,181.641,189.453,0.000
1741724739.189,-1000.000,-1000.000,248.047,-1000.000,0.000
1741724739.193,-983.887,-983.887,471.191,-983.887,0.000
1741724739.197,-973.145,-973.145,312.988,-973.145,0.000
1741724739.200,-1000.000,-1000.000,-306.641,-1000.000,0.000
1741724739.204,-1000.000,-1000.000,-458.008,-1000.000,0.000
1741724739.208,-1000.000,-1000.000,54.688,-1000.000,0.000
1741724739.212,-1000.000,-1000.000,7.812,-1000.000,0.000
1741724739.216,-1000.000,-1000.000,-441.895,-1000.000,0.000
1741724739.220,-1000.000,-1000.000,-329.590,-1000.000,0.000
1741724739.224,-1000.000,-1000.000,-240.723,-1000.000,0.000
1741724739.228,-1000.000,-1000.000,-324.219,-1000.000,0.000
1741724739.232,-1000.000,-1000.000,-264.648,-1000.000,0.000
1741724739.236,-1000.000,-1000.000,-437.988,-1000.000,0.000
1741724739.240,-1000.000,-1000.000,-196.777,-1000.000,0.000
1741724739.243,-1000.000,-1000.000,96.191,-1000.000,0.000
1741724739.247,-1000.000,-1000.000,-404.785,-1000.000,0.000
1741724739.251,-1000.000,-1000.000,-551.270,-1000.000,0.000
1741724739.255,-1000.000,-1000.000,-131.348,-1000.000,0.000
1741724739.259,-1000.000,-1000.000,-65.430,-1000.000,0.000
1741724739.263,-1000.000,-1000.000,-144.531,-1000.000,0.000
1741724739.267,-1000.000,-1000.000,-358.398,-1000.000,0.000
1741724739.271,-1000.000,-1000.000,-631.348,-1000.000,0.000
1741724739.275,-1000.000,-995.605,-681.152,-1000.000,0.000
1741724739.279,-937.500,-945.801,-774.414,-937.500,0.000
1741724739.282,-1000.000,-1000.000,-834.961,-1000.000,0.000
1741724739.286,-219.727,-128.418,-603.516,-219.238,0.000
1741724739.290,999.512,999.512,-194.824,999.512,0.000
1741724739.294,953.613,941.895,-190.918,954.102,0.000
1741724739.298,942.383,949.707,-247.559,943.359,0.000
1741724739.302,976.562,975.098,-90.332,977.051,0.000
1741724739.306,969.727,970.703,41.504,970.215,0.000
1741724739.310,969.727,970.703,361.816,970.215,0.000
1741724739.314,969.727,970.703,426.270,970.703,0.000
1741724739.318,969.727,970.703,95.703,970.703,0.000
1741724739.322,969.727,970.703,205.566,970.215,0.000
1741724739.325,969.727,970.215,412.109,970.703,0.000
1741724739.329,969.727,970.703,144.531,970.215,0.000
1741724739.333,969.727,970.703,360.352,970.215,0.000
1741724739.337,969.727,970.215,978.516,970.215,0.000
1741724739.341,969.727,972.168,890.625,970.215,0.000
1741724739.345,973.633,960.938,806.152,970.215,0.000
1741724739.349,903.809,923.340,712.891,970.703,0.000
1741724739.353,999.512,999.512,598.633,970.703,0.000
1741724739.357,246.582,22.461,776.855,908.203,0.000
1741724739.361,-1000.000,-1000.000,919.922,999.512,0.000
1741724739.365,-993.652,-961.426,833.496,182.617,0.000
1741724739.368,-968.262,-985.352,776.855,-1000.000,0.000
1741724739.372,-1000.000,-1000.000,936.035,-982.910,0.000
1741724739.376,-1000.000,-1000.000,971.191,-973.633,0.000
1741724739.380,-1000.000,-1000.000,932.617,-1000.000,0.000
1741724739.384,-1000.000,-1000.000,876.953,-1000.000,0.000
1741724739.388,-1000.000,-1000.000,837.402,-1000.000,0.000
1741724739.392,-1000.000,-1000.000,835.938,-1000.000,0.000
1741724739.396,-1000.000,-1000.000,735.352,-1000.000,0.000
1741724739.400,-1000.000,-1000.000,408.691,-1000.000,0.000
1741724739.404,-1000.000,-1000.000,393.066,-1000.000,0.000
1741724739.407,-1000.000,-1000.000,803.711,-1000.000,0.000
1741724739.411,-1000.000,-1000.000,611.816,-1000.000,0.000
1741724739.415,-1000.000,-1000.000,90.332,-1000.000,0.000
1741724739.419,-925.293,-925.781,143.066,-929.199,0.000
1741724739.423,-1000.000,-1000.000,232.910,-1000.000,0.000
1741724739.427,-530.762,-524.414,509.277,-401.367,0.000
1741724739.431,902.344,906.250,464.844,965.820,0.000
1741724739.435,999.512,999.512,341.797,986.328,0.000
1741724739.439,916.992,918.457,603.516,928.223,0.000
1741724739.443,984.863,985.352,684.082,981.934,0.000
1741724739.446,969.727,970.703,422.852,970.215,0.000
1741724739.450,969.727,970.703,392.578,970.215,0.000
1741724739.454,969.727,970.703,581.543,970.703,0.000
1741724739.458,969.727,970.703,854.492,970.215,0.000
1741724739.462,969.727,970.703,660.156,970.215,0.000
1741724739.466,969.727,970.703,465.332,970.215,0.000
1741724739.470,984.375,986.328,772.949,979.492,0.000
1741724739.474,913.086,896.484,941.406,934.082,0.000
1741724739.478,999.512,999.512,999.512,980.957,0.000
1741724739.482,827.637,570.801,831.543,950.195,0.000
1741724739.486,-592.773,-883.301,691.895,-324.707,0.000
1741724739.489,-1000.000,-1000.000,952.148,-1000.000,0.000
1741724739.493,-932.617,-942.383,999.512,-943.848,0.000
1741724739.497,-1000.000,-1000.000,615.234,-1000.000,0.000
1741724739.501,-1000.000,-1000.000,279.297,-1000.000,0.000
1741724739.505,-1000.000,-1000.000,205.078,-1000.000,0.000
1741724739.509,-1000.000,-1000.000,216.309,-1000.000,0.000
1741724739.513,-1000.000,-1000.000,337.402,-1000.000,0.000
1741724739.517,-1000.000,-1000.000,108.398,-1000.000,0.000
1741724739.521,-1000.000,-1000.000,184.570,-1000.000,0.000
1741724739.525,-1000.000,-1000.000,728.027,-1000.000,0.000
1741724739.529,-1000.000,-1000.000,497.070,-1000.000,0.000
1741724739.532,-1000.000,-1000.000,155.762,-1000.000,0.000
1741724739.536,-1000.000,-1000.000,159.668,-1000.000,0.000
1741724739.540,-1000.000,-1000.000,215.820,-1000.000,0.000
1741724739.544,-1000.000,-1000.000,544.434,-1000.000,0.000
1741724739.548,-1000.000,-1000.000,329.590,-1000.000,0.000
1741724739.552,-1000.000,-1000.000,0.488,-1000.000,0.000
1741724739.556,-1000.000,-999.512,259.277,-1000.000,0.000
1741724739.560,-937.500,-939.453,237.793,-937.500,0.000
1741724739.564,-1000.000,-1000.000,-2.441,-1000.000,0.000
1741724739.568,-219.727,-195.312,103.516,-219.238,0.000
1741724739.571,999.512,999.512,359.863,999.512,0.000
1741724739.575,953.613,950.684,399.414,954.102,0.000
1741724739.579,942.383,944.824,422.852,942.871,0.000
1741724739.583,976.562,976.562,354.980,977.051,0.000
1741724739.587,969.727,970.703,387.695,970.703,0.000
1741724739.591,969.727,970.215,744.141,970.215,0.000
1741724739.595,969.727,970.215,725.586,970.215,0.000
1741724739.599,969.727,970.703,843.262,970.215,0.000
1741724739.603,969.727,970.703,946.777,970.215,0.000
1741724739.607,969.727,970.215,893.555,970.215,0.000
1741724739.611,969.727,970.215,932.617,970.215,0.000
1741724739.614,969.727,970.215,958.496,970.215,0.000
1741724739.618,969.727,970.703,970.703,970.215,0.000
1741724739.622,969.727,970.703,957.520,970.215,0.000
1741724739.626,969.727,970.703,969.727,970.703,0.000
1741724739.630,980.957,974.609,958.496,985.352,0.000
1741724739.634,895.996,903.320,900.391,904.297,0.000
1741724739.638,999.512,999.512,896.973,999.512,0.000
1741724739.642,0.000,257.324,961.426,678.711,0.000
1741724739.646,0.000,-1000.000,974.121,-758.789,0.000
1741724739.650,0.000,-995.117,836.426,-1000.000,0.000
1741724739.654,0.000,-967.773,580.078,-938.477,0.000
1741724739.657,0.000,-1000.000,637.207,-1000.000,0.000
1741724739.661,0.000,-1000.000,961.426,-1000.000,0.000
1741724739.665,0.000,-1000.000,895.020,-1000.000,0.000
1741724739.669,0.000,-1000.000,598.633,-1000.000,0.000
1741724739.673,0.000,-1000.000,687.012,-1000.000,0.000
1741724739.677,0.000,-1000.000,720.703,-1000.000,0.000
1741724739.681,0.000,-1000.000,380.859,-1000.000,0.000
1741724739.685,0.000,-1000.000,-28.320,-1000.000,0.000
1741724739.689,-1000.000,-1000.000,138.184,-1000.000,0.000
1741724739.693,-1000.000,-1000.000,590.820,-1000.000,0.000
1741724739.696,-996.582,-979.980,495.605,-992.676,0.000
1741724739.700,-943.848,-971.191,-153.809,-949.707,0.000
1741724739.704,-1000.000,-1000.000,-33.203,-1000.000,0.000
1741724739.708,-144.531,92.773,603.516,-85.449,0.000
1741724739.712,999.512,999.512,372.559,999.512,0.000
1741724739.716,942.871,917.480,332.520,936.035,0.000
1741724739.720,948.242,964.844,633.789,953.125,0.000
1741724739.724,974.609,971.680,723.145,974.121,0.000
1741724739.728,969.727,970.215,831.543,970.215,0.000
1741724739.732,969.727,970.215,675.293,970.215,0.000
1741724739.736,969.727,970.215,662.109,970.215,0.000
1741724739.739,969.727,970.215,961.914,970.215,0.000
1741724739.743,969.727,970.703,980.957,970.215,0.000
1741724739.747,969.727,973.145,942.383,970.703,0.000
1741724739.751,970.703,957.520,945.312,971.191,0.000
1741724739.755,907.227,929.199,971.191,907.715,0.000
1741724739.759,999.512,999.512,974.609,999.512,0.000
1741724739.763,188.965,-26.367,954.102,189.453,0.000
1741724739.767,-1000.000,-1000.000,904.785,-1000.000,0.000
1741724739.771,-983.887,-956.055,966.797,-983.887,0.000
1741724739.775,-973.145,-988.770,911.621,-973.145,0.000
1741724739.778,-1000.000,-1000.000,830.566,-1000.000,0.000
1741724739.782,-1000.000,-1000.000,736.816,-1000.000,0.000
1741724739.786,-1000.000,-1000.000,600.586,-1000.000,0.000
1741724739.790,-1000.000,-1000.000,638.184,-1000.000,0.000
1741724739.794,-1000.000,-1000.000,618.652,-1000.000,0.000
1741724739.798,-1000.000,-1000.000,306.641,-1000.000,0.000
1741724739.802,-1000.000,-1000.000,325.684,-1000.000,0.000
1741724739.806,-1000.000,-1000.000,847.656,-1000.000,0.000
1741724739.810,-1000.000,-1000.000,882.324,-1000.000,0.000
1741724739.814,-1000.000,-1000.000,651.367,-1000.000,0.000
1741724739.818,-1000.000,-1000.000,322.754,-1000.000,0.000
1741724739.821,-1000.000,-1000.000,139.160,-1000.000,0.000
1741724739.825,-1000.000,-1000.000,671.875,-1000.000,0.000
1741724739.829,-1000.000,-1000.000,807.617,-1000.000,0.000
1741724739.833,-1000.000,-1000.000,308.105,-1000.000,0.000
1741724739.837,-1000.000,-987.793,438.477,-1000.000,0.000
1741724739.841,-937.500,-958.008,772.949,-937.500,0.000
1741724739.845,-1000.000,-1000.000,629.883,-1000.000,0.000
1741724739.849,-219.727,-9.766,398.438,-219.238,0.000
1741724739.853,999.512,999.512,460.938,999.512,0.000
1741724739.857,953.613,927.246,626.465,954.102,0.000
1741724739.861,942.383,958.496,612.793,943.359,0.000
1741724739.864,976.562,973.145,492.188,977.051,0.000
1741724739.868,969.727,970.703,363.770,970.703,0.000
1741724739.872,969.727,970.215,490.234,970.703,0.000
1741724739.876,969.727,970.703,906.738,970.215,0.000
1741724739.880,969.727,970.703,931.152,970.215,0.000
1741724739.884,969.727,970.703,907.715,970.215,0.000
1741724739.888,969.727,970.703,984.375,970.215,0.000
1741724739.892,970.215,970.703,966.797,970.703,0.000
1741724739.896,982.422,971.191,970.215,984.375,0.000
1741724739.900,896.484,907.715,971.191,911.621,0.000
1741724739.903,999.512,999.512,973.145,999.512,0.000
1741724739.907,460.449,189.453,938.477,771.973,0.000
1741724739.911,-951.660,-1000.000,974.121,-644.043,0.000
1741724739.915,-1000.000,-983.887,910.645,-1000.000,0.000
1741724739.919,-951.172,-973.145,530.762,-935.547,0.000
1741724739.923,-1000.000,-1000.000,539.551,-1000.000,0.000
1741724739.927,-1000.000,-1000.000,711.914,-1000.000,0.000
1741724739.931,-1000.000,-1000.000,496.094,-1000.000,0.000
1741724739.935,-1000.000,-1000.000,161.621,-1000.000,0.000
1741724739.939,-1000.000,-1000.000,120.605,-1000.000,0.000
1741724739.943,-1000.000,-1000.000,597.656,-1000.000,0.000
1741724739.946,-1000.000,-1000.000,551.758,-1000.000,0.000
1741724739.950,-1000.000,-1000.000,-82.520,-1000.000,0.000
1741724739.954,-1000.000,-1000.000,-497.559,-1000.000,0.000
1741724739.958,-1000.000,-1000.000,-781.738,-1000.000,0.000
1741724739.962,-1000.000,-1000.000,-992.188,-1000.000,0.000
1741724739.966,-1000.000,-1000.000,-1000.000,-1000.000,0.000
1741724739.970,-1000.000,-1000.000,-995.117,-1000.000,0.000
1741724739.974,-1000.000,-1000.000,-1000.000,-1000.000,0.000
1741724739.978,-1000.000,-1000.000,-1000.000,-1000.000,0.000
1741724739.982,-930.664,-937.500,-1000.000,-927.246,0.000
1741724739.986,-1000.000,-1000.000,-1000.000,-1000.000,0.000
1741724739.989,-342.285,-219.238,-1000.000,-575.684,0.000
1741724739.993,996.094,999.512,-1000.000,861.328,0.000
1741724739.997,974.609,954.102,-1000.000,999.512,0.000
1741724740.001,933.105,943.359,-1000.000,915.039,0.000
1741724740.005,979.980,977.539,-1000.000,985.352,0.000
1741724740.009,969.727,970.703,-1000.000,970.215,0.000
1741724740.013,970.215,970.703,-1000.000,975.586,0.000
1741724740.017,970.215,970.703,-1000.000,947.266,0.000
1741724740.021,969.727,970.703,-1000.000,949.707,0.000
1741724740.025,970.215,970.703,-1000.000,999.512,0.000
1741724740.028,970.215,970.703,-1000.000,-160.156,0.000
1741724740.032,970.215,970.703,-1000.000,-1000.000,0.000
1741724740.036,969.727,970.703,-1000.000,-947.754,0.000
1741724740.040,970.215,970.703,-1000.000,-995.605,0.000
1741724740.044,970.215,970.703,-1000.000,-1000.000,0.000
1741724740.048,970.215,970.703,-1000.000,-1000.000,0.000
1741724740.052,970.215,970.703,-1000.000,-1000.000,0.000
1741724740.056,970.215,970.703,-1000.000,-1000.000,0.000
1741724740.060,970.215,970.703,-1000.000,-1000.000,0.000
1741724740.064,969.727,970.703,-1000.000,-1000.000,0.000
1741724740.068,969.727,970.703,-1000.000,-1000.000,0.000
1741724740.071,970.215,970.703,-1000.000,-1000.000,0.000
1741724740.075,970.215,970.703,-1000.000,-1000.000,0.000
1741724740.079,969.727,970.703,-1000.000,-1000.000,0.000
1741724740.083,970.215,970.703,-1000.000,-1000.000,0.000
1741724740.087,970.215,970.703,-1000.000,-1000.000,0.000
1741724740.091,970.215,970.703,-1000.000,-1000.000,0.000
1741724740.095,970.215,970.703,-1000.000,-1000.000,0.000
1741724740.099,970.215,970.703,-1000.000,-1000.000,0.000
1741724740.103,970.215,970.703,-1000.000,-1000.000,0.000
1741724740.107,970.215,970.703,-1000.000,-1000.000,0.000
1741724740.111,970.215,970.703,-1000.000,-1000.000,0.000
1741724740.114,970.215,971.680,-1000.000,-1000.000,0.000
1741724740.118,970.215,907.715,-1000.000,-1000.000,0.000
1741724740.122,970.215,999.512,-1000.000,-1000.000,0.000
1741724740.126,970.215,189.453,-1000.000,-1000.000,0.000
1741724740.130,970.215,-1000.000,-995.605,-1000.000,0.000
1741724740.134,970.215,-983.887,-976.074,-1000.000,0.000
1741724740.138,970.215,-979.980,-1000.000,-1000.000,0.000
1741724740.142,970.215,-978.516,-549.316,-947.266,0.000
1741724740.146,970.215,-987.793,532.227,-1000.000,0.000
1741724740.150,970.215,-1000.000,999.512,-848.633,0.000
1741724740.153,969.727,207.031,943.359,541.992,0.000
1741724740.157,969.727,999.512,966.309,999.512,0.000
1741724740.161,969.727,908.203,972.168,905.762,0.000
1741724740.165,969.727,971.680,970.215,981.445,0.000
1741724740.169,969.727,970.703,970.215,970.215,0.000
1741724740.173,969.727,970.703,970.215,970.215,0.000
1741724740.177,969.727,971.191,970.703,970.703,0.000
1741724740.181,969.727,907.715,970.703,970.703,0.000
1741724740.185,969.727,999.512,970.215,970.703,0.000
1741724740.189,969.727,189.453,970.215,970.215,0.000
1741724740.193,969.727,-1000.000,970.215,970.215,0.000
1741724740.196,969.727,-983.887,970.703,970.215,0.000
1741724740.200,969.727,-973.145,970.703,970.703,0.000
1741724740.204,969.727,-1000.000,970.215,970.703,0.000
1741724740.208,969.727,-1000.000,970.703,970.215,0.000
1741724740.212,969.727,-1000.000,970.703,970.703,0.000
1741724740.216,969.727,-989.746,970.215,970.215,0.000
1741724740.220,969.727,-954.102,970.215,970.703,0.000
1741724740.224,969.727,-1000.000,970.703,970.703,0.000
1741724740.228,969.727,-41.992,970.703,970.703,0.000
1741724740.232,969.727,999.512,970.215,970.703,0.000
1741724740.235,969.727,867.676,970.703,970.703,0.000
1741724740.239,969.727,999.512,970.703,970.703,0.000
1741724740.243,969.727,191.895,970.703,970.703,0.000
1741724740.247,970.215,-1000.000,970.215,970.215,0.000
1741724740.251,970.215,-983.887,970.215,970.215,0.000
1741724740.255,969.727,-983.398,970.215,970.703,0.000
1741724740.259,969.727,-965.820,970.703,970.215,0.000
1741724740.263,969.727,-1000.000,970.215,970.215,0.000
1741724740.267,969.727,-967.773,970.215,970.215,0.000
1741724740.271,969.727,373.535,970.215,970.703,0.000
1741724740.275,969.727,999.512,970.703,970.703,0.000
1741724740.278,969.727,904.785,970.215,970.215,0.000
1741724740.282,969.727,977.539,973.633,970.215,0.000
1741724740.286,969.727,970.215,958.008,970.703,0.000
1741724740.290,969.727,970.215,972.656,970.703,0.000
1741724740.294,969.727,970.215,930.176,970.215,0.000
1741724740.298,969.727,970.215,434.082,970.215,0.000
1741724740.302,969.727,970.215,-31.738,970.215,0.000
1741724740.306,969.727,970.215,-96.191,970.215,0.000
1741724740.310,970.703,976.074,-170.410,970.703,0.000
1741724740.314,965.820,945.801,-386.230,970.703,0.000
1741724740.317,914.062,950.195,-356.934,908.691,0.000
1741724740.321,999.512,999.512,-280.273,999.512,0.000
1741724740.325,108.887,-184.082,-319.824,178.223,0.000
1741724740.329,-1000.000,-1000.000,-302.734,-1000.000,0.000
1741724740.333,-972.656,-941.895,-556.152,-982.422,0.000
1741724740.337,-979.004,-998.535,-610.352,-973.633,0.000
1741724740.341,-1000.000,-1000.000,-505.371,-1000.000,0.000
1741724740.345,-1000.000,-1000.000,-378.418,-1000.000,0.000
1741724740.349,-1000.000,-1000.000,-264.160,-1000.000,0.000
1741724740.353,-1000.000,-1000.000,-59.082,-1000.000,0.000
1741724740.357,-1000.000,-1000.000,489.746,-1000.000,0.000
1741724740.360,-1000.000,-1000.000,949.707,-1000.000,0.000
1741724740.364,-1000.000,-1000.000,970.703,-1000.000,0.000
1741724740.368,-1000.000,-1000.000,958.496,-1000.000,0.000
1741724740.372,-1000.000,-1000.000,974.121,-1000.000,0.000
1741724740.376,-1000.000,-1000.000,970.703,-1000.000,0.000
1741724740.380,-1000.000,-1000.000,970.703,-1000.000,0.000
1741724740.384,-1000.000,-1000.000,970.703,-1000.000,0.000
1741724740.388,-1000.000,-1000.000,970.703,-1000.000,0.000
1741724740.392,-1000.000,-1000.000,970.703,-936.523,0.000
1741724740.396,-1000.000,-1000.000,970.703,-1000.000,0.000
1741724740.400,-1000.000,-1000.000,970.703,-722.168,0.000
1741724740.403,-1000.000,-926.758,970.703,703.613,0.000
1741724740.407,-1000.000,-1000.000,970.703,999.512,0.000
1741724740.411,-1000.000,-439.941,970.215,908.691,0.000
1741724740.415,-1000.000,937.500,970.215,984.375,0.000
1741724740.419,-1000.000,951.660,970.703,970.215,0.000
1741724740.423,-1000.000,999.512,970.215,970.703,0.000
1741724740.427,-1000.000,-14.648,970.703,970.703,0.000
1741724740.431,-1000.000,-1000.000,970.703,970.703,0.000
1741724740.435,-1000.000,-969.727,970.215,970.703,0.000
1741724740.439,0.000,-932.617,970.703,970.215,0.000
1741724740.442,0.000,-1000.000,970.703,970.215,0.000
1741724740.446,0.000,-834.473,970.703,970.215,0.000
1741724740.450,0.000,581.055,970.703,970.215,0.000
1741724740.454,0.000,999.512,970.703,970.215,0.000
1741724740.458,0.000,888.184,970.703,970.703,0.000
1741724740.462,0.000,999.512,970.703,970.215,0.000
1741724740.466,0.000,-208.984,970.703,970.215,0.000
1741724740.470,0.000,-1000.000,970.215,970.215,0.000
1741724740.474,0.000,-940.430,970.703,970.215,0.000
1741724740.478,0.000,-999.512,970.215,970.703,0.000
1741724740.482,0.000,-1000.000,970.215,970.703,0.000
1741724740.485,-1000.000,-1000.000,970.703,970.703,0.000
1741724740.489,-1000.000,-1000.000,970.703,970.215,0.000
1741724740.493,-1000.000,-976.074,970.215,970.703,0.000
1741724740.497,-1000.000,-979.492,970.703,970.703,0.000
1741724740.501,-1000.000,-1000.000,970.703,970.215,0.000
1741724740.505,-1000.000,83.008,970.215,970.703,0.000
1741724740.509,-1000.000,999.512,970.215,970.215,0.000
1741724740.513,-1000.000,223.633,970.215,970.215,0.000
1741724740.517,-1000.000,-1000.000,970.215,970.703,0.000
1741724740.521,-1000.000,-998.535,970.215,970.215,0.000
1741724740.524,-1000.000,-965.332,970.703,970.215,0.000
1741724740.528,-1000.000,-1000.000,970.703,970.703,0.000
1741724740.532,-1000.000,-1000.000,970.703,970.703,0.000
1741724740.536,-1000.000,-1000.000,970.703,970.703,0.000
1741724740.540,-1000.000,-1000.000,970.703,970.215,0.000
1741724740.544,-1000.000,-935.547,970.703,970.215,0.000
1741724740.548,-1000.000,-1000.000,970.703,970.703,0.000
1741724740.552,-1000.000,-248.047,970.703,970.215,0.000
1741724740.556,-1000.000,999.512,970.215,970.703,0.000
1741724740.560,-1000.000,958.984,970.215,970.215,0.000
1741724740.564,-1000.000,941.406,970.703,970.215,0.000
1741724740.567,-1000.000,978.516,970.215,970.703,0.000
1741724740.571,-1000.000,970.703,970.703,970.215,0.000
1741724740.575,-1000.000,970.703,970.703,970.215,0.000
1741724740.579,-1000.000,970.703,970.703,970.215,0.000
1741724740.583,-1000.000,970.703,970.703,970.215,0.000
1741724740.587,-1000.000,970.703,970.215,970.215,0.000
1741724740.591,-1000.000,970.703,970.703,970.215,0.000
1741724740.595,-1000.000,970.703,970.703,970.215,0.000
1741724740.599,-1000.000,983.398,970.215,970.215,0.000
1741724740.603,-1000.000,918.945,970.703,970.703,0.000
1741724740.607,-1000.000,999.512,970.215,970.703,0.000
1741724740.610,-1000.000,837.891,970.215,970.703,0.000
1741724740.614,-1000.000,-549.805,970.215,970.215,0.000
1741724740.618,-1000.000,-1000.000,970.215,970.215,0.000
1741724740.622,-1000.000,-934.570,970.703,970.703,0.000
1741724740.626,-1000.000,-1000.000,970.703,970.215,0.000
1741724740.630,-1000.000,-1000.000,970.215,970.215,0.000
1741724740.634,-1000.000,-1000.000,970.703,970.215,0.000
1741724740.638,-1000.000,-937.500,970.703,970.215,0.000
1741724740.642,-1000.000,-1000.000,970.703,970.215,0.000
1741724740.646,-1000.000,-219.238,970.703,970.703,0.000
1741724740.649,-1000.000,999.512,970.215,970.703,0.000
1741724740.653,-1000.000,954.590,970.703,970.703,0.000
1741724740.657,-1000.000,943.359,970.703,970.703,0.000
1741724740.661,-1000.000,977.539,970.703,970.215,0.000
1741724740.665,-1000.000,970.703,970.703,970.215,0.000
1741724740.669,-1000.000,970.703,970.703,970.215,0.000
1741724740.673,-1000.000,970.703,970.703,970.703,0.000
1741724740.677,-1000.000,970.703,970.703,970.703,0.000
1741724740.681,-1000.000,970.703,970.215,970.215,0.000
1741724740.685,-1000.000,970.703,970.703,970.703,0.000
1741724740.689,-1000.000,970.703,970.703,970.215,0.000
1741724740.692,-1000.000,970.703,970.703,970.215,0.000
1741724740.696,-1000.000,970.703,970.215,970.215,0.000
1741724740.700,-1000.000,970.703,970.703,970.703,0.000
1741724740.704,-1000.000,970.703,970.703,970.703,0.000
1741724740.708,-1000.000,970.703,970.703,970.703,0.000
1741724740.712,-1000.000,970.703,970.703,970.215,0.000
1741724740.716,-1000.000,970.703,970.703,970.215,0.000
1741724740.720,-1000.000,970.703,970.703,970.703,0.000
1741724740.724,-1000.000,970.703,970.703,970.703,0.000
1741724740.728,-1000.000,970.703,970.703,970.703,0.000
1741724740.732,-1000.000,970.703,970.215,970.703,0.000
1741724740.735,-1000.000,970.703,970.215,970.703,0.000
1741724740.739,-1000.000,971.680,970.703,980.469,0.000
1741724740.743,-1000.000,907.715,970.703,898.438,0.000
1741724740.747,-1000.000,999.512,970.703,999.512,0.000
1741724740.751,-1000.000,189.453,970.703,389.648,0.000
1741724740.755,-1000.000,-1000.000,970.703,-990.234,0.000
1741724740.759,-1000.000,-983.887,971.191,-1000.000,0.000
1741724740.763,-1000.000,-973.145,970.703,-957.031,0.000
1741724740.767,-1000.000,-1000.000,970.703,-1000.000,0.000
1741724740.771,-1000.000,-1000.000,970.703,-1000.000,0.000
1741724740.774,-1000.000,-995.117,970.703,-1000.000,0.000
1741724740.778,-1000.000,-946.289,970.703,-929.688,0.000
1741724740.782,-1000.000,-1000.000,970.703,-1000.000,0.000
1741724740.786,-1000.000,-124.023,970.703,-379.395,0.000
1741724740.790,-1000.000,999.512,970.703,977.539,0.000
1741724740.794,-1000.000,941.406,970.703,981.934,0.000
1741724740.798,-1000.000,950.195,970.703,930.176,0.000
1741724740.802,-1000.000,989.258,970.215,995.605,0.000
1741724740.806,-1000.000,915.039,970.215,902.832,0.000
1741724740.810,-1000.000,999.512,970.703,999.512,0.000
1741724740.814,-1000.000,814.453,970.703,625.488,0.000
1741724740.817,-1000.000,-596.680,970.703,-803.711,0.000
1741724740.821,-1000.000,-1000.000,970.703,-1000.000,0.000
1741724740.825,-1000.000,-933.594,970.703,-941.406,0.000
1741724740.829,-1000.000,-1000.000,970.703,-1000.000,0.000
1741724740.833,-1000.000,-926.758,970.703,-1000.000,0.000
1741724740.837,-1000.000,-1000.000,969.238,-1000.000,0.000
1741724740.841,-1000.000,-565.918,966.309,-1000.000,0.000
1741724740.845,-1000.000,871.094,982.422,-1000.000,0.000
1741724740.849,-1000.000,999.512,869.141,-1000.000,0.000
1741724740.853,-1000.000,916.016,770.020,-1000.000,0.000
1741724740.856,-1000.000,985.840,910.645,-1000.000,0.000
1741724740.860,-1000.000,970.703,993.652,-1000.000,0.000
1741724740.864,-1000.000,970.703,848.145,-1000.000,0.000
1741724740.868,-1000.000,970.703,645.020,-1000.000,0.000
1741724740.872,-1000.000,970.703,661.133,-1000.000,0.000
1741724740.876,-1000.000,978.027,819.824,-1000.000,0.000
1741724740.880,-1000.000,940.918,810.059,-1000.000,0.000
1741724740.884,-1000.000,963.379,847.656,-1000.000,0.000
1741724740.888,-1000.000,999.512,774.414,-1000.000,0.000
1741724740.892,-1000.000,-254.883,359.863,-1000.000,0.000
1741724740.896,-1000.000,-1000.000,-41.016,-1000.000,0.000
1741724740.899,-1000.000,-939.453,47.852,-1000.000,0.000
1741724740.903,-1000.000,-1000.000,125.000,-1000.000,0.000
1741724740.907,-1000.000,-1000.000,-251.465,-1000.000,0.000
1741724740.911,-1000.000,-1000.000,-579.590,-1000.000,0.000
1741724740.915,-1000.000,-1000.000,-565.918,-1000.000,0.000
1741724740.919,-1000.000,-938.477,-777.344,-1000.000,0.000
1741724740.923,-1000.000,-1000.000,-1000.000,-1000.000,0.000
1741724740.927,-1000.000,-208.984,-933.594,-1000.000,0.000
1741724740.931,-1000.000,999.512,-764.648,-1000.000,0.000
1741724740.935,-1000.000,953.125,-899.414,-1000.000,0.000
1741724740.938,-1000.000,944.336,-1000.000,-1000.000,0.000
1741724740.942,-1000.000,977.051,-992.188,-1000.000,0.000
1741724740.946,-1000.000,970.703,-1000.000,-1000.000,0.000
1741724740.950,-1000.000,970.703,-1000.000,-1000.000,0.000
1741724740.954,-1000.000,970.703,-1000.000,-1000.000,0.000
1741724740.958,-1000.000,970.703,-1000.000,-1000.000,0.000
1741724740.962,-1000.000,970.703,-1000.000,-1000.000,0.000
1741724740.966,-1000.000,970.703,-1000.000,-1000.000,0.000
1741724740.970,-1000.000,981.934,-1000.000,-1000.000,0.000
1741724740.974,-1000.000,897.461,-1000.000,-1000.000,0.000
1741724740.978,-1000.000,999.512,-1000.000,-1000.000,0.000
1741724740.981,-1000.000,408.691,-1000.000,-1000.000,0.000
1741724740.985,-997.559,-963.379,-1000.000,-1000.000,0.000
1741724740.989,-942.871,-988.770,-1000.000,-1000.000,0.000
1741724740.993,-1000.000,-1000.000,-1000.000,-1000.000,0.000
1741724740.997,-159.180,44.922,-1000.000,-1000.000,0.000
1741724741.001,999.512,999.512,-1000.000,-1000.000,0.000
1741724741.005,945.312,919.922,-1000.000,-1000.000,0.000
1741724741.009,947.266,963.379,-1000.000,-1000.000,0.000
1741724741.013,975.586,973.145,-996.582,-1000.000,0.000
1741724741.017,971.191,964.844,-1000.000,-1000.000,0.000
1741724741.021,906.250,917.480,-979.492,-1000.000,0.000
1741724741.024,999.512,999.512,-953.125,-1000.000,0.000
1741724741.028,203.125,88.379,-1000.000,-1000.000,0.000
1741724741.032,-1000.000,-1000.000,-1000.000,-1000.000,0.000
1741724741.036,-986.328,-970.703,-998.047,-1000.000,0.000
1741724741.040,-971.680,-980.469,-1000.000,-1000.000,0.000
1741724741.044,-1000.000,-1000.000,-1000.000,-1000.000,0.000
1741724741.048,-1000.000,-1000.000,-1000.000,-1000.000,0.000
1741724741.052,-1000.000,-1000.000,-1000.000,-1000.000,0.000
1741724741.056,-1000.000,-1000.000,-1000.000,-1000.000,0.000
1741724741.060,-1000.000,-998.047,-1000.000,-1000.000,0.000
1741724741.063,-937.500,-941.895,-1000.000,-927.246,0.000
1741724741.067,-1000.000,-1000.000,-1000.000,-1000.000,0.000
1741724741.071,-219.238,-170.898,-1000.000,-486.816,0.000
1741724741.075,999.512,999.512,-1000.000,922.363,0.000
1741724741.079,953.613,947.754,-980.469,999.512,0.000
1741724741.083,942.871,947.266,-1000.000,921.387,0.000
1741724741.087,976.562,976.074,-841.309,984.375,0.000
1741724741.091,969.727,970.703,-474.609,970.215,0.000
1741724741.095,969.727,970.215,-548.340,970.703,0.000
1741724741.099,969.727,970.703,-676.758,979.492,0.000
1741724741.103,969.727,970.703,-695.312,898.926,0.000
1741724741.106,969.727,970.703,-494.629,999.512,0.000
1741724741.110,977.051,980.957,-458.008,371.094,0.000
1741724741.114,940.918,928.223,-410.645,-997.070,0.000
1741724741.118,958.984,993.652,-265.625,-1000.000,0.000
1741724741.122,999.512,919.922,-201.660,-958.496,0.000
1741724741.126,-242.676,-420.898,-88.379,-1000.000,0.000
1741724741.130,-1000.000,-1000.000,-302.246,-1000.000,0.000
1741724741.134,-937.988,-935.547,-762.695,-1000.000,0.000
1741724741.138,-1000.000,-1000.000,-766.602,-1000.000,0.000
1741724741.142,-1000.000,-1000.000,-647.461,-1000.000,0.000
1741724741.145,-1000.000,-1000.000,-838.379,-1000.000,0.000
1741724741.149,-1000.000,-1000.000,-1000.000,-1000.000,0.000
1741724741.153,-1000.000,-1000.000,-1000.000,-1000.000,0.000
1741724741.157,-1000.000,-1000.000,-993.164,-1000.000,0.000
1741724741.161,-1000.000,-1000.000,-681.152,-1000.000,0.000
1741724741.165,-1000.000,-1000.000,-687.988,-1000.000,0.000
1741724741.169,-1000.000,-1000.000,-1000.000,-1000.000,0.000
1741724741.173,-991.699,-979.980,-867.188,-1000.000,0.000
1741724741.177,-950.684,-972.168,-802.246,-1000.000,0.000
1741724741.181,-1000.000,-1000.000,-789.062,-969.727,0.000
1741724741.185,-70.801,99.121,-783.203,-997.070,0.000
1741724741.188,999.512,999.512,-832.031,-1000.000,0.000
1741724741.192,933.105,916.992,-636.719,236.816,0.000
1741724741.196,953.613,965.332,-802.246,999.512,0.000
1741724741.200,973.145,971.680,-875.488,912.598,0.000
1741724741.204,970.215,970.703,-570.801,970.215,0.000
1741724741.208,969.727,970.703,-80.078,971.191,0.000
1741724741.212,969.727,970.703,306.152,970.215,0.000
1741724741.216,969.727,970.703,35.156,970.215,0.000
1741724741.220,970.215,971.680,-58.594,979.492,0.000
1741724741.224,966.797,965.332,46.875,927.734,0.000
1741724741.227,912.109,916.016,7.324,999.512,0.000
1741724741.231,999.512,999.512,-119.629,865.234,0.000
1741724741.235,128.906,90.820,8.789,-451.172,0.000
1741724741.239,-1000.000,-1000.000,586.426,-1000.000,0.000
1741724741.243,-975.586,-970.215,590.820,-940.918,0.000
1741724741.247,-977.539,-980.469,-198.730,-1000.000,0.000
1741724741.251,-1000.000,-1000.000,-512.695,-1000.000,0.000
1741724741.255,-1000.000,-1000.000,-24.414,-1000.000,0.000
1741724741.259,-1000.000,-1000.000,161.621,-1000.000,0.000
1741724741.263,-1000.000,-1000.000,-121.094,-1000.000,0.000
1741724741.267,-1000.000,-1000.000,-406.738,-1000.000,0.000
1741724741.270,-1000.000,-1000.000,-530.762,-1000.000,0.000
1741724741.274,-1000.000,-1000.000,-288.086,-1000.000,0.000
1741724741.278,-1000.000,-1000.000,-287.598,-1000.000,0.000
1741724741.282,-1000.000,-1000.000,-461.914,-1000.000,0.000
1741724741.286,-1000.000,-1000.000,-445.801,-1000.000,0.000
1741724741.290,-993.652,-983.887,-463.867,-1000.000,0.000
1741724741.294,-947.754,-964.355,-353.516,-937.012,0.000
1741724741.298,-1000.000,-1000.000,-486.816,-1000.000,0.000
1741724741.302,-99.609,46.387,-538.574,-226.562,0.000
1741724741.306,999.512,999.512,-261.230,999.512,0.000
1741724741.310,936.523,920.898,-326.172,955.078,0.000
1741724741.313,951.660,962.402,-495.605,942.383,0.000
1741724741.317,973.633,971.680,-394.043,977.539,0.000
1741724741.321,969.727,970.215,-248.535,970.703,0.000
1741724741.325,969.727,970.215,-178.223,970.703,0.000
1741724741.329,969.727,970.703,-395.508,970.215,0.000
1741724741.333,969.727,970.703,-623.047,970.703,0.000
1741724741.337,969.727,970.703,-354.492,970.703,0.000
1741724741.341,969.727,970.703,3.906,970.703,0.000
1741724741.345,969.727,970.703,-75.195,970.215,0.000
1741724741.349,970.703,972.168,-43.945,975.098,0.000
1741724741.352,965.332,959.961,561.035,949.707,0.000
1741724741.356,914.062,924.805,446.777,944.824,0.000
1741724741.360,999.512,999.512,-105.957,999.512,0.000
1741724741.364,103.516,8.301,-50.293,-134.766,0.000
1741724741.368,-1000.000,-1000.000,80.078,-1000.000,0.000
1741724741.372,-971.680,-959.961,46.387,-947.754,0.000
1741724741.376,-979.492,-986.328,-222.656,-994.629,0.000
1741724741.380,-1000.000,-1000.000,-462.891,-1000.000,0.000
1741724741.384,-1000.000,-1000.000,-688.965,-1000.000,0.000
1741724741.388,-1000.000,-1000.000,-551.758,-1000.000,0.000
1741724741.392,-1000.000,-1000.000,-516.602,-1000.000,0.000
1741724741.395,-1000.000,-1000.000,-436.035,-1000.000,0.000
1741724741.399,-1000.000,-1000.000,-244.629,-1000.000,0.000
1741724741.403,-1000.000,-1000.000,-812.012,-1000.000,0.000
1741724741.407,-1000.000,-1000.000,-961.426,-1000.000,0.000
1741724741.411,-1000.000,-1000.000,-752.930,-1000.000,0.000
1741724741.415,-1000.000,-1000.000,-923.828,-1000.000,0.000
1741724741.419,-1000.000,-1000.000,-1000.000,-1000.000,0.000
1741724741.423,-1000.000,-1000.000,-988.770,-1000.000,0.000
1741724741.427,-1000.000,-1000.000,-996.582,-1000.000,0.000
1741724741.431,-1000.000,-1000.000,-1000.000,-1000.000,0.000
1741724741.434,-930.176,-932.129,-986.328,-977.051,0.000
1741724741.438,-1000.000,-1000.000,-989.746,-979.004,0.000
1741724741.442,-646.973,-695.312,-832.520,-1000.000,0.000
1741724741.446,797.363,751.953,-838.867,134.766,0.000
1741724741.450,999.512,999.512,-1000.000,999.512,0.000
1741724741.454,910.645,908.691,-994.141,915.527,0.000
1741724741.458,984.863,985.840,-798.828,966.797,0.000
1741724741.462,969.727,970.703,-672.363,971.680,0.000
1741724741.466,969.727,970.703,-419.434,970.215,0.000
1741724741.470,969.727,970.703,-299.805,970.215,0.000
1741724741.474,969.727,970.703,-394.531,970.215,0.000
1741724741.477,969.727,970.215,-158.691,970.215,0.000
1741724741.481,970.215,970.703,-326.172,970.215,0.000
1741724741.485,969.727,970.703,-351.074,970.215,0.000
1741724741.489,969.727,970.703,64.941,970.215,0.000
1741724741.493,969.727,970.703,384.277,970.215,0.000
1741724741.497,969.727,970.215,-32.715,970.215,0.000
1741724741.501,970.215,970.703,-394.043,973.145,0.000
1741724741.505,970.215,971.191,-289.551,959.473,0.000
1741724741.509,907.227,907.715,-19.531,928.711,0.000
1741724741.513,999.512,999.512,-103.516,999.512,0.000
1741724741.517,188.965,189.453,-199.219,13.184,0.000
1741724741.520,-1000.000,-1000.000,273.926,-1000.000,0.000
1741724741.524,-983.887,-983.887,302.246,-965.332,0.000
1741724741.528,-973.145,-973.145,-401.367,-984.375,0.000
1741724741.532,-1000.000,-1000.000,-875.977,-1000.000,0.000
1741724741.536,-1000.000,-1000.000,-535.156,-1000.000,0.000
1741724741.540,-1000.000,-1000.000,-241.211,-1000.000,0.000
1741724741.544,-1000.000,-1000.000,-543.945,-1000.000,0.000
1741724741.548,-1000.000,-1000.000,-754.395,-1000.000,0.000
1741724741.552,-1000.000,-1000.000,-796.875,-1000.000,0.000
1741724741.556,-1000.000,-1000.000,-759.766,-1000.000,0.000
1741724741.559,-1000.000,-1000.000,-719.238,-1000.000,0.000
1741724741.563,-1000.000,-1000.000,-770.020,-1000.000,0.000
1741724741.567,-1000.000,-1000.000,-756.348,-1000.000,0.000
1741724741.571,-933.594,-925.781,-818.848,-1000.000,0.000
1741724741.575,-1000.000,-1000.000,-753.418,-960.938,0.000
1741724741.579,-282.715,-533.203,-493.164,-1000.000,0.000
1741724741.583,999.512,899.902,-728.027,-971.680,0.000
1741724741.587,964.355,999.512,-722.656,349.609,0.000
1741724741.591,937.500,917.480,-631.348,999.512,0.000
1741724741.595,978.516,985.352,-632.812,906.250,0.000
1741724741.599,969.727,970.703,-730.957,976.074,0.000
1741724741.602,969.727,970.703,-844.238,970.703,0.000
1741724741.606,969.727,970.703,-266.602,970.215,0.000
1741724741.610,969.727,970.703,-203.613,970.215,0.000
1741724741.614,969.727,970.703,-522.949,970.215,0.000
1741724741.618,969.727,970.703,-327.148,970.215,0.000
1741724741.622,969.727,970.215,-73.242,970.215,0.000
1741724741.626,969.727,970.703,-219.238,970.215,0.000
1741724741.630,969.727,970.703,-89.355,970.703,0.000
1741724741.634,969.727,970.215,116.699,970.703,0.000
1741724741.638,969.727,970.703,243.164,970.215,0.000
1741724741.641,970.215,970.703,325.195,970.703,0.000
1741724741.645,969.727,970.703,284.668,970.703,0.000
1741724741.649,982.422,985.840,-7.812,984.863,0.000
1741724741.653,920.898,907.227,10.254,904.297,0.000
1741724741.657,999.512,999.512,382.812,999.512,0.000
1741724741.661,876.953,724.609,225.098,664.062,0.000
1741724741.665,-504.883,-710.449,100.098,-767.090,0.000
1741724741.669,-1000.000,-1000.000,229.980,-1000.000,0.000
1741724741.673,-933.105,-936.035,26.367,-939.453,0.000
1741724741.677,-1000.000,-1000.000,42.969,-1000.000,0.000
1741724741.681,-1000.000,-1000.000,125.000,-1000.000,0.000
1741724741.684,-1000.000,-1000.000,-303.223,-1000.000,0.000
1741724741.688,-1000.000,-1000.000,-501.953,-1000.000,0.000
1741724741.692,-1000.000,-1000.000,-216.797,-1000.000,0.000
1741724741.696,-1000.000,-1000.000,-252.930,-1000.000,0.000
1741724741.700,-1000.000,-1000.000,-336.914,-1000.000,0.000
1741724741.704,-1000.000,-1000.000,-347.168,-1000.000,0.000
1741724741.708,-1000.000,-1000.000,-428.711,-1000.000,0.000
1741724741.712,-1000.000,-1000.000,-484.863,-1000.000,0.000
1741724741.716,-961.426,-986.328,-574.707,-999.023,0.000
1741724741.720,-1000.000,-959.473,-486.328,-940.430,0.000
1741724741.724,-976.562,-1000.000,19.531,-1000.000,0.000
1741724741.727,340.332,7.812,59.570,-183.105,0.000
1741724741.731,999.512,999.512,-570.312,999.512,0.000
1741724741.735,906.250,924.805,-607.422,949.219,0.000
1741724741.739,974.609,959.473,-240.723,945.801,0.000
1741724741.743,970.215,972.168,-111.816,976.562,0.000
1741724741.747,969.727,970.703,-8.789,970.215,0.000
1741724741.751,969.727,970.703,-44.922,970.703,0.000
1741724741.755,969.727,970.703,-133.789,970.703,0.000
1741724741.759,969.727,970.215,-113.770,970.703,0.000
1741724741.763,969.727,970.703,-173.828,970.215,0.000
1741724741.766,969.727,970.703,-109.863,970.215,0.000
1741724741.770,982.910,985.840,484.375,975.586,0.000
1741724741.774,916.992,904.785,968.750,903.320,0.000
1741724741.778,999.512,999.512,423.340,999.512,0.000
1741724741.782,840.332,692.871,11.230,279.785,0.000
1741724741.786,-557.129,-747.070,375.977,-1000.000,0.000
1741724741.790,-1000.000,-1000.000,501.953,-999.512,0.000
1741724741.794,-933.594,-937.500,214.844,-965.820,0.000
1741724741.798,-1000.000,-1000.000,-366.699,-1000.000,0.000
1741724741.802,-1000.000,-1000.000,-446.777,-1000.000,0.000
1741724741.806,-1000.000,-1000.000,-256.836,-1000.000,0.000
1741724741.809,-1000.000,-1000.000,-601.074,-1000.000,0.000
1741724741.813,-1000.000,-1000.000,-795.410,-1000.000,0.000
1741724741.817,-1000.000,-1000.000,-528.320,-1000.000,0.000
1741724741.821,-1000.000,-1000.000,-309.082,-1000.000,0.000
1741724741.825,-1000.000,-1000.000,-503.906,-1000.000,0.000
1741724741.829,-1000.000,-1000.000,-784.180,-1000.000,0.000
1741724741.833,-1000.000,-1000.000,-960.938,-1000.000,0.000
1741724741.837,-1000.000,-1000.000,-961.914,-1000.000,0.000
1741724741.841,-1000.000,-1000.000,-977.539,-1000.000,0.000
1741724741.845,-1000.000,-1000.000,-996.582,-1000.000,0.000
1741724741.848,-1000.000,-1000.000,-1000.000,-1000.000,0.000
1741724741.852,-944.336,-940.430,-1000.000,-990.234,0.000
1741724741.856,-1000.000,-1000.000,-993.652,-954.590,0.000
1741724741.860,-840.332,-798.828,-973.633,-1000.000,0.000
1741724741.864,571.777,625.977,-972.656,-51.758,0.000
1741724741.868,999.512,999.512,-944.336,999.512,0.000
1741724741.872,903.320,905.273,-978.027,933.105,0.000
1741724741.876,982.422,984.375,-935.547,955.078,0.000
1741724741.880,970.215,970.703,-739.746,973.633,0.000
1741724741.884,969.727,970.703,-633.301,970.703,0.000
1741724741.888,969.727,970.703,-503.418,970.215,0.000
1741724741.891,969.727,970.215,-204.102,970.215,0.000
1741724741.895,969.727,970.215,-345.215,970.703,0.000
1741724741.899,969.727,970.703,-393.066,970.215,0.000
1741724741.903,969.727,970.215,-238.770,970.215,0.000
1741724741.907,969.727,970.703,-244.629,970.215,0.000
1741724741.911,969.727,970.703,-74.219,970.703,0.000
1741724741.915,969.727,970.703,-117.188,970.215,0.000
1741724741.919,975.098,979.004,-369.141,981.934,0.000
1741724741.923,947.266,937.012,-209.473,922.852,0.000
1741724741.927,944.824,969.727,-45.898,999.512,0.000
1741724741.930,999.512,997.070,-260.254,864.258,0.000
1741724741.934,-158.691,-300.781,-268.555,-498.047,0.000
1741724741.938,-1000.000,-1000.000,-131.836,-1000.000,0.000
1741724741.942,-942.383,-935.547,-137.695,-936.035,0.000
1741724741.946,-997.559,-1000.000,-565.430,-1000.000,0.000
1741724741.950,-1000.000,-1000.000,-861.328,-1000.000,0.000
1741724741.954,-1000.000,-1000.000,-801.270,-1000.000,0.000
1741724741.958,-1000.000,-1000.000,-317.383,-1000.000,0.000
1741724741.962,-1000.000,-1000.000,-395.996,-1000.000,0.000
1741724741.966,-1000.000,-1000.000,-957.031,-1000.000,0.000
1741724741.970,-1000.000,-1000.000,-980.469,-1000.000,0.000
1741724741.973,-1000.000,-1000.000,-805.176,-1000.000,0.000
1741724741.977,-1000.000,-1000.000,-877.930,-1000.000,0.000
1741724741.981,-1000.000,-1000.000,-1000.000,-1000.000,0.000
1741724741.985,-1000.000,-1000.000,-1000.000,-1000.000,0.000
1741724741.989,-1000.000,-1000.000,-967.285,-1000.000,0.000
1741724741.993,-985.840,-978.516,-906.250,-996.094,0.000
1741724741.997,-960.938,-973.633,-980.469,-944.824,0.000
1741724742.001,-1000.000,-1000.000,-1000.000,-1000.000,0.000
1741724742.005,18.555,118.652,-896.484,-138.184,0.000
1741724742.009,999.512,999.512,-794.922,999.512,0.000
1741724742.013,922.852,913.574,-895.996,942.871,0.000
1741724742.016,959.961,967.285,-1000.000,949.219,0.000
1741724742.020,971.680,971.191,-862.305,975.098,0.000
1741724742.024,969.727,970.703,-458.496,970.703,0.000
1741724742.028,969.727,970.215,-193.848,970.215,0.000
1741724742.032,969.727,970.703,-297.852,970.215,0.000
1741724742.036,969.727,970.703,-637.207,970.703,0.000
1741724742.040,969.727,970.703,-400.391,970.703,0.000
1741724742.044,969.727,970.215,-101.562,970.215,0.000
1741724742.048,969.727,970.703,-294.922,970.215,0.000
1741724742.052,969.727,970.703,-31.250,970.703,0.000
1741724742.055,969.727,970.215,341.797,968.750,0.000
1741724742.059,969.727,970.215,7.812,973.145,0.000
1741724742.063,969.727,970.215,-247.070,967.285,0.000
1741724742.067,971.680,972.656,-425.781,945.312,0.000
1741724742.071,963.379,963.867,-98.145,950.684,0.000
1741724742.075,925.293,925.781,180.664,941.895,0.000
1741724742.079,999.512,999.512,-209.961,999.512,0.000
1741724742.083,100.586,101.074,-112.305,-1.953,0.000
1741724742.087,-1000.000,-1000.000,499.023,-1000.000,0.000
1741724742.091,-984.375,-984.375,629.883,-973.145,0.000
1741724742.095,-975.586,-975.098,31.738,-981.934,0.000
1741724742.098,-1000.000,-1000.000,-196.777,-1000.000,0.000
1741724742.102,-1000.000,-1000.000,125.000,-1000.000,0.000
1741724742.106,-1000.000,-1000.000,-67.383,-1000.000,0.000
1741724742.110,-1000.000,-1000.000,-342.773,-1000.000,0.000
1741724742.114,-1000.000,-1000.000,-571.777,-1000.000,0.000
1741724742.118,-1000.000,-1000.000,-734.863,-1000.000,0.000
1741724742.122,-1000.000,-1000.000,-490.723,-1000.000,0.000
1741724742.126,-1000.000,-1000.000,-418.457,-1000.000,0.000
1741724742.130,-1000.000,-1000.000,-658.691,-1000.000,0.000
1741724742.134,-1000.000,-1000.000,-561.035,-1000.000,0.000
1741724742.138,-1000.000,-1000.000,-295.898,-1000.000,0.000
1741724742.141,-1000.000,-1000.000,-172.852,-1000.000,0.000
1741724742.145,-1000.000,-1000.000,-89.355,-1000.000,0.000
1741724742.149,-1000.000,-1000.000,-304.688,-1000.000,0.000
1741724742.153,-1000.000,-1000.000,-615.234,-1000.000,0.000
1741724742.157,-1000.000,-1000.000,-560.059,-1000.000,0.000
1741724742.161,-936.523,-948.242,-668.457,-964.844,0.000
1741724742.165,-1000.000,-1000.000,-949.219,-1000.000,0.000
1741724742.169,-729.492,-879.395,-644.043,-1000.000,0.000
1741724742.173,699.219,514.648,-430.664,292.969,0.000
1741724742.177,999.512,999.512,-645.020,999.512,0.000
1741724742.180,907.715,903.809,-636.230,905.273,0.000
1741724742.184,983.887,981.445,-335.938,974.609,0.000
1741724742.188,969.727,970.703,4.395,970.215,0.000
1741724742.192,969.727,970.215,494.141,970.215,0.000
1741724742.196,969.727,970.703,800.781,970.215,0.000
1741724742.200,969.727,970.703,610.840,970.215,0.000
1741724742.204,969.727,970.703,494.141,970.215,0.000
1741724742.208,969.727,970.215,311.523,970.215,0.000
1741724742.212,969.727,970.703,57.617,970.703,0.000
1741724742.216,969.727,970.703,59.570,970.215,0.000
1741724742.220,969.727,970.703,118.652,970.215,0.000
1741724742.223,969.727,970.703,434.082,970.215,0.000
1741724742.227,969.727,970.703,427.734,970.703,0.000
1741724742.231,969.727,970.703,51.758,970.215,0.000
1741724742.235,969.727,970.703,110.840,970.215,0.000
1741724742.239,970.215,970.215,742.676,970.215,0.000
1741724742.243,969.727,970.703,999.512,970.215,0.000
1741724742.247,969.727,970.215,766.602,970.215,0.000
1741724742.251,970.215,970.703,521.484,972.168,0.000
1741724742.255,970.703,971.191,685.059,963.867,0.000
1741724742.259,907.227,907.227,741.699,919.922,0.000
1741724742.262,999.512,999.512,411.133,999.512,0.000
1741724742.266,188.965,189.453,371.582,79.102,0.000
1741724742.270,-1000.000,-1000.000,812.012,-1000.000,0.000
1741724742.274,-983.887,-983.887,863.281,-971.191,0.000
1741724742.278,-973.145,-973.145,214.355,-980.469,0.000
1741724742.282,-1000.000,-1000.000,-104.492,-1000.000,0.000
1741724742.286,-1000.000,-1000.000,161.133,-1000.000,0.000
1741724742.290,-1000.000,-1000.000,241.211,-1000.000,0.000
1741724742.294,-1000.000,-1000.000,-154.297,-1000.000,0.000
1741724742.298,-1000.000,-1000.000,-597.656,-1000.000,0.000
1741724742.302,-1000.000,-1000.000,-726.562,-1000.000,0.000
1741724742.305,-1000.000,-1000.000,-549.805,-1000.000,0.000
1741724742.309,-1000.000,-1000.000,-367.676,-1000.000,0.000
1741724742.313,-1000.000,-1000.000,-466.797,-1000.000,0.000
1741724742.317,-1000.000,-1000.000,-643.066,-1000.000,0.000
1741724742.321,-1000.000,-1000.000,-697.754,-1000.000,0.000
1741724742.325,-937.500,-937.500,-606.445,-928.223,0.000
1741724742.329,-1000.000,-1000.000,-576.660,-1000.000,0.000
1741724742.333,-219.238,-219.238,-498.047,-416.016,0.000
1741724742.337,999.512,999.512,-398.438,961.914,0.000
1741724742.341,953.613,954.102,-426.758,988.770,0.000
1741724742.345,942.383,943.359,-348.633,927.246,0.000
1741724742.348,976.562,977.051,-218.262,982.422,0.000
1741724742.352,969.727,970.703,-64.941,970.703,0.000
1741724742.356,970.215,970.703,-159.668,970.215,0.000
1741724742.360,969.727,970.703,-274.414,970.215,0.000
1741724742.364,969.727,970.703,-396.973,970.215,0.000
1741724742.368,969.727,970.703,-123.047,970.215,0.000
1741724742.372,969.727,970.215,254.395,970.215,0.000
1741724742.376,969.727,970.703,45.410,970.215,0.000
1741724742.380,969.727,970.703,206.543,970.215,0.000
1741724742.384,969.727,970.215,407.715,970.215,0.000
1741724742.387,969.727,970.215,337.891,970.215,0.000
1741724742.391,969.727,970.215,308.594,970.215,0.000
1741724742.395,969.727,971.191,28.320,970.215,0.000
1741724742.399,969.727,970.703,-155.273,970.215,0.000
1741724742.403,969.727,958.496,29.297,970.703,0.000
1741724742.407,970.215,967.773,256.836,971.680,0.000
1741724742.411,970.703,908.203,281.738,966.309,0.000
1741724742.415,907.227,999.512,264.648,917.480,0.000
1741724742.419,999.512,209.473,341.309,999.512,0.000
1741724742.423,188.965,-1000.000,559.570,121.582,0.000
1741724742.427,-1000.000,-987.305,898.926,-1000.000,0.000
1741724742.430,-983.887,-971.191,816.895,-979.492,0.000
1741724742.434,-973.145,-1000.000,335.938,-976.562,0.000
1741724742.438,-1000.000,-1000.000,228.027,-1000.000,0.000
1741724742.442,-1000.000,-1000.000,246.582,-1000.000,0.000
1741724742.446,-1000.000,-1000.000,-108.887,-1000.000,0.000
1741724742.450,-1000.000,-1000.000,-201.660,-1000.000,0.000
1741724742.454,-1000.000,-1000.000,-23.926,-1000.000,0.000
1741724742.458,-1000.000,-1000.000,240.234,-1000.000,0.000
1741724742.462,-1000.000,-1000.000,47.852,-1000.000,0.000
1741724742.466,-1000.000,-1000.000,-323.242,-1000.000,0.000
1741724742.469,-1000.000,-1000.000,-174.805,-1000.000,0.000
1741724742.473,-1000.000,-1000.000,243.164,-1000.000,0.000
1741724742.477,-1000.000,-1000.000,442.871,-1000.000,0.000
1741724742.481,-1000.000,-1000.000,229.492,-1000.000,0.000
1741724742.485,-1000.000,-1000.000,-224.609,-1000.000,0.000
1741724742.489,-1000.000,-1000.000,-209.473,-1000.000,0.000
1741724742.493,-1000.000,-1000.000,-140.625,-1000.000,0.000
1741724742.497,-1000.000,-1000.000,-250.977,-1000.000,0.000
1741724742.501,-1000.000,-1000.000,-227.539,-1000.000,0.000
1741724742.505,-1000.000,-1000.000,-132.324,-1000.000,0.000
1741724742.509,-1000.000,-1000.000,167.480,-1000.000,0.000
1741724742.512,-937.500,-938.477,41.016,-937.500,0.000
1741724742.516,-1000.000,-1000.000,-203.125,-1000.000,0.000
1741724742.520,-219.727,-208.984,80.566,-219.238,0.000
1741724742.524,999.512,999.512,340.332,999.512,0.000
1741724742.528,953.613,952.637,186.035,954.102,0.000
1741724742.532,942.383,944.336,-39.551,942.871,0.000
1741724742.536,976.562,977.051,81.055,977.051,0.000
1741724742.540,969.727,970.215,489.746,970.215,0.000
1741724742.544,969.727,970.703,721.191,970.215,0.000
1741724742.548,969.727,970.215,636.719,970.215,0.000
1741724742.552,969.727,970.703,698.730,970.215,0.000
1741724742.555,969.727,970.703,892.090,970.215,0.000
1741724742.559,969.727,970.215,998.535,970.215,0.000
1741724742.563,969.727,970.215,792.480,970.703,0.000
1741724742.567,969.727,970.215,778.809,970.215,0.000
1741724742.571,969.727,970.703,993.652,970.215,0.000
1741724742.575,969.727,970.215,973.145,970.215,0.000
1741724742.579,969.727,908.691,937.988,970.215,0.000
1741724742.583,969.727,999.512,936.035,970.215,0.000
1741724742.587,969.727,182.129,975.586,970.215,0.000
1741724742.591,969.727,-1000.000,969.727,970.215,0.000
1741724742.594,969.727,-1000.000,969.727,970.215,0.000
1741724742.598,969.727,-57.129,970.703,970.703,0.000
1741724742.602,969.727,999.512,970.215,970.215,0.000
1741724742.606,969.727,936.035,970.215,970.215,0.000
1741724742.610,969.727,953.125,970.215,970.703,0.000
1741724742.614,969.727,974.609,970.215,970.703,0.000
1741724742.618,977.539,977.539,970.215,974.121,0.000
1741724742.622,898.926,900.391,970.215,904.297,0.000
1741724742.626,999.512,999.512,970.703,999.512,0.000
1741724742.630,328.613,314.941,970.215,242.676,0.000
1741724742.634,-1000.000,-1000.000,964.355,-1000.000,0.000
1741724742.637,-1000.000,-1000.000,980.469,-992.676,0.000
1741724742.641,-961.914,-962.891,890.137,-968.750,0.000
1741724742.645,-1000.000,-1000.000,687.012,-1000.000,0.000
1741724742.649,-1000.000,-1000.000,701.172,-1000.000,0.000
1741724742.653,-1000.000,-1000.000,772.461,-1000.000,0.000
1741724742.657,-1000.000,-1000.000,681.641,-1000.000,0.000
1741724742.661,-1000.000,-1000.000,893.555,-1000.000,0.000
1741724742.665,-1000.000,-1000.000,702.637,-1000.000,0.000
1741724742.669,-1000.000,-1000.000,267.578,-1000.000,0.000
1741724742.673,-1000.000,-1000.000,182.617,-1000.000,0.000
1741724742.676,-1000.000,-1000.000,-27.832,-1000.000,0.000
1741724742.680,-1000.000,-1000.000,-237.305,-1000.000,0.000
1741724742.684,-1000.000,-1000.000,-281.250,-1000.000,0.000
1741724742.688,-1000.000,-1000.000,-166.992,-1000.000,0.000
1741724742.692,-1000.000,-1000.000,-33.203,-1000.000,0.000
1741724742.696,-1000.000,-1000.000,-404.785,-1000.000,0.000
1741724742.700,-997.070,-983.398,-597.656,-1000.000,0.000
1741724742.704,-942.871,-964.844,-0.488,-938.477,0.000
1741724742.708,-1000.000,-1000.000,375.977,-1000.000,0.000
1741724742.712,-157.715,50.293,340.820,-208.496,0.000
1741724742.716,999.512,999.512,-194.824,999.512,0.000
1741724742.719,944.824,920.410,-214.844,952.637,0.000
1741724742.723,947.266,962.402,282.715,943.848,0.000
1741724742.727,975.098,971.680,130.859,977.051,0.000
1741724742.731,969.727,970.703,100.586,970.215,0.000
1741724742.735,969.727,970.215,304.688,970.215,0.000
1741724742.739,969.727,970.215,602.539,970.215,0.000
1741724742.743,969.727,970.703,739.258,970.703,0.000
1741724742.747,969.727,970.703,451.660,970.215,0.000
1741724742.751,969.727,970.703,450.195,970.215,0.000
1741724742.755,969.727,970.703,826.172,970.215,0.000
1741724742.759,969.727,970.215,983.398,970.215,0.000
1741724742.762,969.727,970.215,944.336,970.215,0.000
1741724742.766,969.727,970.215,770.508,970.215,0.000
1741724742.770,969.727,970.703,631.348,970.215,0.000
1741724742.774,969.727,970.703,650.391,970.703,0.000
1741724742.778,969.727,970.703,834.473,970.215,0.000
1741724742.782,969.727,970.215,986.328,970.703,0.000
1741724742.786,979.980,982.910,947.266,974.609,0.000
1741724742.790,896.973,896.484,999.512,903.809,0.000
1741724742.794,999.512,999.512,853.027,999.512,0.000
1741724742.798,381.836,441.406,699.707,262.695,0.000
1741724742.801,-996.582,-966.797,936.523,-1000.000,0.000
1741724742.805,-1000.000,-1000.000,999.512,-996.582,0.000
1741724742.809,-957.520,-952.637,837.402,-967.285,0.000
1741724742.813,-1000.000,-1000.000,465.820,-1000.000,0.000
1741724742.817,-1000.000,-1000.000,222.168,-1000.000,0.000
1741724742.821,-1000.000,-1000.000,521.484,-1000.000,0.000
1741724742.825,-1000.000,-1000.000,585.449,-1000.000,0.000
1741724742.829,-1000.000,-1000.000,62.988,-1000.000,0.000
1741724742.833,-1000.000,-1000.000,-136.230,-1000.000,0.000
1741724742.837,-1000.000,-1000.000,-90.332,-1000.000,0.000
1741724742.841,-1000.000,-1000.000,19.043,-1000.000,0.000
1741724742.844,-1000.000,-1000.000,-28.809,-1000.000,0.000
1741724742.848,-1000.000,-1000.000,90.820,-1000.000,0.000
1741724742.852,-1000.000,-1000.000,298.340,-1000.000,0.000
1741724742.856,-1000.000,-1000.000,131.348,-1000.000,0.000
1741724742.860,-1000.000,-1000.000,49.805,-1000.000,0.000
1741724742.864,-1000.000,-1000.000,-80.078,-1000.000,0.000
1741724742.868,-1000.000,-1000.000,-172.363,-1000.000,0.000
1741724742.872,-1000.000,-1000.000,48.340,-1000.000,0.000
1741724742.876,-1000.000,-1000.000,473.145,-1000.000,0.000
1741724742.880,-925.293,-925.781,153.809,-926.758,0.000
1741724742.883,-1000.000,-1000.000,-48.828,-1000.000,0.000
1741724742.887,-555.176,-528.809,237.305,-488.281,0.000
1741724742.891,887.207,903.320,201.660,922.363,0.000
1741724742.895,999.512,999.512,249.512,999.512,0.000
1741724742.899,915.527,918.457,683.594,921.387,0.000
1741724742.903,985.352,985.352,847.168,984.375,0.000
1741724742.907,969.727,970.703,551.270,970.215,0.000
1741724742.911,969.727,970.703,452.637,970.215,0.000
1741724742.915,969.727,970.215,439.453,970.215,0.000
1741724742.919,969.727,970.215,604.980,970.215,0.000
1741724742.923,969.727,970.215,685.059,970.215,0.000
1741724742.926,969.727,970.703,551.270,970.215,0.000
1741724742.930,969.727,970.215,804.199,970.703,0.000
1741724742.934,969.727,970.703,816.895,970.215,0.000
1741724742.938,985.352,971.191,696.777,984.375,0.000
1741724742.942,899.902,907.715,935.059,901.367,0.000
1741724742.946,999.512,999.512,999.512,999.512,0.000
1741724742.950,640.625,189.453,821.289,582.031,0.000
1741724742.954,-808.594,-1000.000,810.059,-843.750,0.000
1741724742.958,-1000.000,-983.887,938.965,-1000.000,0.000
1741724742.962,-939.453,-973.145,602.051,-943.848,0.000
1741724742.965,-1000.000,-1000.000,184.082,-1000.000,0.000
1741724742.969,-1000.000,-1000.000,334.473,-1000.000,0.000
1741724742.973,-1000.000,-1000.000,593.750,-1000.000,0.000
1741724742.977,-1000.000,-1000.000,486.328,-1000.000,0.000
1741724742.981,-1000.000,-1000.000,405.762,-1000.000,0.000
1741724742.985,-1000.000,-1000.000,321.289,-1000.000,0.000
1741724742.989,-1000.000,-1000.000,589.355,-1000.000,0.000
1741724742.993,-1000.000,-1000.000,960.449,-1000.000,0.000
1741724742.997,-1000.000,-1000.000,796.387,-1000.000,0.000
1741724743.001,-1000.000,-1000.000,307.617,-1000.000,0.000
1741724743.005,-1000.000,-1000.000,415.039,-1000.000,0.000
1741724743.008,-941.895,-926.270,526.367,-959.473,0.000
1741724743.012,-1000.000,-1000.000,134.277,-1000.000,0.000
1741724743.016,-813.477,-496.094,226.074,-970.215,0.000
1741724743.020,605.469,920.410,452.148,367.188,0.000
1741724743.024,999.512,999.512,719.238,999.512,0.000
1741724743.028,903.809,920.898,950.684,904.785,0.000
1741724743.032,982.910,984.375,793.945,977.051,0.000
1741724743.036,969.727,970.703,865.234,970.215,0.000
1741724743.040,969.727,970.703,996.094,970.215,0.000
1741724743.044,969.727,970.215,936.035,970.215,0.000
1741724743.048,969.727,970.703,843.262,970.215,0.000
1741724743.051,970.215,970.215,909.668,970.215,0.000
1741724743.055,969.727,970.215,980.957,970.703,0.000
1741724743.059,969.727,970.703,970.703,970.703,0.000
1741724743.063,0.000,970.703,942.871,970.215,0.000
1741724743.067,0.000,970.215,941.406,970.215,0.000
1741724743.071,0.000,970.703,972.656,970.215,0.000
1741724743.075,0.000,970.703,978.516,970.215,0.000
1741724743.079,0.000,970.703,906.738,970.703,0.000
1741724743.083,0.000,971.191,918.457,973.633,0.000
1741724743.087,0.000,907.715,982.422,904.785,0.000
1741724743.090,0.000,999.512,967.285,999.512,0.000
1741724743.094,0.000,189.453,963.867,237.793,0.000
1741724743.098,0.000,-1000.000,967.285,-1000.000,0.000
1741724743.102,0.000,-983.887,956.055,-991.699,0.000
1741724743.106,0.000,-973.145,999.512,-969.238,0.000
1741724743.110,-1000.000,-1000.000,781.250,-1000.000,0.000
1741724743.114,-1000.000,-1000.000,448.730,-1000.000,0.000
1741724743.118,-1000.000,-1000.000,486.816,-1000.000,0.000
1741724743.122,-1000.000,-1000.000,606.934,-1000.000,0.000
1741724743.126,-1000.000,-1000.000,512.695,-1000.000,0.000
1741724743.130,-1000.000,-1000.000,505.371,-1000.000,0.000
1741724743.133,-1000.000,-1000.000,685.059,-1000.000,0.000
1741724743.137,-1000.000,-1000.000,594.238,-1000.000,0.000
1741724743.141,-1000.000,-1000.000,417.480,-1000.000,0.000
1741724743.145,-1000.000,-1000.000,285.645,-1000.000,0.000
1741724743.149,-1000.000,-1000.000,34.668,-1000.000,0.000
1741724743.153,-1000.000,-1000.000,-133.301,-1000.000,0.000
1741724743.157,-1000.000,-1000.000,308.105,-1000.000,0.000
1741724743.161,-1000.000,-1000.000,283.203,-1000.000,0.000
1741724743.165,-1000.000,-1000.000,-321.777,-1000.000,0.000
1741724743.169,-982.422,-958.984,-105.469,-998.535,0.000
1741724743.173,-967.285,-1000.000,162.109,-940.918,0.000
1741724743.176,-1000.000,-959.961,411.621,-1000.000,0.000
1741724743.180,65.918,377.930,149.902,-181.641,0.000
1741724743.184,999.512,999.512,-250.000,999.512,0.000
1741724743.188,917.969,905.273,126.953,949.219,0.000
1741724743.192,962.891,977.051,455.566,945.801,0.000
1741724743.196,971.191,970.703,514.648,976.074,0.000
1741724743.200,969.727,970.703,387.695,970.703,0.000
1741724743.204,969.727,970.703,242.188,970.215,0.000
1741724743.208,969.727,970.215,630.371,970.215,0.000
1741724743.212,969.727,970.215,702.637,970.215,0.000
1741724743.215,969.727,970.215,696.777,970.215,0.000
1741724743.219,969.727,970.703,975.098,970.703,0.000
1741724743.223,969.727,970.703,962.402,970.215,0.000
1741724743.227,969.727,970.703,930.176,970.215,0.000
1741724743.231,970.215,970.703,905.273,970.703,0.000
1741724743.235,970.703,970.215,872.070,971.191,0.000
1741724743.239,906.738,908.691,749.512,907.715,0.000
1741724743.243,999.512,999.512,696.777,999.512,0.000
1741724743.247,188.965,176.270,809.570,189.453,0.000
1741724743.251,-1000.000,-1000.000,550.781,-1000.000,0.000
1741724743.255,-983.887,-981.934,342.773,-983.887,0.000
1741724743.258,-973.145,-974.121,264.648,-973.145,0.000
1741724743.262,-1000.000,-1000.000,98.145,-1000.000,0.000
1741724743.266,-1000.000,-1000.000,45.410,-1000.000,0.000
1741724743.270,-1000.000,-1000.000,77.637,-1000.000,0.000
1741724743.274,-1000.000,-1000.000,499.512,-1000.000,0.000
1741724743.278,-1000.000,-1000.000,385.254,-1000.000,0.000
1741724743.282,-1000.000,-1000.000,-291.992,-1000.000,0.000
1741724743.286,-1000.000,-1000.000,-359.375,-1000.000,0.000
1741724743.290,-1000.000,-1000.000,-55.664,-1000.000,0.000
1741724743.294,-1000.000,-1000.000,-110.840,-1000.000,0.000
1741724743.297,-1000.000,-1000.000,-323.730,-1000.000,0.000
1741724743.301,-1000.000,-1000.000,-445.312,-1000.000,0.000
1741724743.305,-1000.000,-1000.000,-306.641,-1000.000,0.000
1741724743.309,-1000.000,-1000.000,14.160,-1000.000,0.000
1741724743.313,-1000.000,-1000.000,-107.422,-1000.000,0.000
1741724743.317,-958.496,-938.477,-122.070,-972.168,0.000
1741724743.321,-1000.000,-1000.000,108.887,-987.793,0.000
1741724743.325,-965.820,-772.461,50.293,-1000.000,0.000
1741724743.329,380.371,657.715,25.879,201.660,0.000
1741724743.333,999.512,999.512,26.855,999.512,0.000
1741724743.337,903.320,905.762,155.762,909.180,0.000
1741724743.340,977.539,984.375,324.707,971.191,0.000
1741724743.344,969.727,970.215,507.812,970.703,0.000
1741724743.348,969.727,970.703,353.027,970.703,0.000
1741724743.352,969.727,970.215,295.898,970.215,0.000
1741724743.356,969.727,970.703,564.941,970.215,0.000
1741724743.360,969.727,970.703,702.148,970.215,0.000
1741724743.364,969.727,970.703,754.395,970.703,0.000
1741724743.368,969.727,970.703,816.406,970.703,0.000
1741724743.372,969.727,970.703,766.602,970.215,0.000
1741724743.376,969.727,970.703,361.328,970.215,0.000
1741724743.380,969.727,970.703,108.887,970.215,0.000
1741724743.383,969.727,970.703,490.234,970.703,0.000
1741724743.387,969.727,970.703,860.352,970.215,0.000
1741724743.391,973.633,984.863,831.055,971.191,0.000
1741724743.395,952.148,911.621,658.203,967.773,0.000
1741724743.399,936.523,999.512,368.652,912.598,0.000
1741724743.403,999.512,771.973,371.094,999.512,0.000
1741724743.407,-90.332,-646.973,715.332,131.836,0.000
1741724743.411,-1000.000,-1000.000,978.027,-1000.000,0.000
1741724743.415,-949.707,-935.059,642.090,-976.074,0.000
1741724743.419,-992.676,-1000.000,261.230,-977.539,0.000
1741724743.422,-1000.000,-1000.000,215.820,-1000.000,0.000
1741724743.426,-1000.000,-1000.000,221.680,-1000.000,0.000
1741724743.430,-1000.000,-1000.000,255.371,-1000.000,0.000
1741724743.434,-1000.000,-1000.000,48.828,-1000.000,0.000
1741724743.438,-1000.000,-1000.000,174.316,-1000.000,0.000
1741724743.442,-1000.000,-1000.000,316.406,-1000.000,0.000
1741724743.446,-1000.000,-1000.000,-69.336,-1000.000,0.000
1741724743.450,-1000.000,-1000.000,-201.172,-1000.000,0.000
1741724743.454,-1000.000,-1000.000,-24.902,-1000.000,0.000
1741724743.458,-1000.000,-1000.000,208.984,-1000.000,0.000
1741724743.462,-1000.000,-1000.000,173.340,-1000.000,0.000
1741724743.465,-1000.000,-1000.000,-83.008,-1000.000,0.000
1741724743.469,-1000.000,-1000.000,-142.090,-1000.000,0.000
1741724743.473,-1000.000,-1000.000,-138.184,-1000.000,0.000
1741724743.477,-1000.000,-1000.000,-36.621,-1000.000,0.000
1741724743.481,-1000.000,-1000.000,-175.781,-1000.000,0.000
1741724743.485,-1000.000,-1000.000,-328.613,-1000.000,0.000
1741724743.489,-937.500,-937.988,-236.816,-937.012,0.000
1741724743.493,-1000.000,-1000.000,-121.094,-1000.000,0.000
1741724743.497,-219.238,-215.820,-153.809,-223.633,0.000
1741724743.501,999.512,999.512,-376.465,999.512,0.000
1741724743.505,953.613,953.613,-47.363,954.590,0.000
1741724743.508,942.871,943.359,221.680,942.871,0.000
1741724743.512,976.562,977.051,-192.383,977.051,0.000
1741724743.516,969.727,970.703,-477.051,970.703,0.000
1741724743.520,969.727,970.703,-409.668,970.215,0.000
1741724743.524,969.727,970.703,-50.781,970.215,0.000
1741724743.528,969.727,970.703,80.078,970.703,0.000
1741724743.532,969.727,970.215,-96.680,970.215,0.000
1741724743.536,969.727,970.215,-229.492,970.215,0.000
1741724743.540,969.727,970.703,67.871,970.215,0.000
1741724743.544,969.727,970.703,209.473,970.215,0.000
1741724743.547,969.727,970.215,-175.293,970.215,0.000
1741724743.551,969.727,970.703,-156.738,970.215,0.000
1741724743.555,969.727,982.422,366.211,970.215,0.000
1741724743.559,969.727,922.852,268.555,970.215,0.000
1741724743.563,970.215,999.512,-436.523,971.680,0.000
1741724743.567,970.703,886.230,-599.121,965.332,0.000
1741724743.571,907.227,-485.840,-376.465,916.992,0.000
1741724743.575,999.512,-1000.000,-229.492,999.512,0.000
1741724743.579,188.965,-933.594,-260.742,94.727,0.000
1741724743.583,-1000.000,-1000.000,-362.305,-1000.000,0.000
1741724743.587,-983.887,-1000.000,-607.910,-971.680,0.000
1741724743.590,-973.145,-1000.000,-620.117,-979.980,0.000
1741724743.594,-1000.000,-1000.000,-527.832,-1000.000,0.000
1741724743.598,-1000.000,-1000.000,-806.641,-1000.000,0.000
1741724743.602,-1000.000,-1000.000,-746.094,-1000.000,0.000
1741724743.606,-1000.000,-1000.000,-372.559,-1000.000,0.000
1741724743.610,-1000.000,-1000.000,-514.160,-1000.000,0.000
1741724743.614,-1000.000,-1000.000,-905.762,-1000.000,0.000
1741724743.618,-1000.000,-1000.000,-1000.000,-1000.000,0.000
1741724743.622,-1000.000,-1000.000,-983.398,-1000.000,0.000
1741724743.626,-1000.000,-1000.000,-1000.000,-1000.000,0.000
1741724743.629,-1000.000,-1000.000,-1000.000,-1000.000,0.000
1741724743.633,-1000.000,-1000.000,-1000.000,-1000.000,0.000
1741724743.637,-938.477,-929.199,-965.820,-961.914,0.000
1741724743.641,-1000.000,-1000.000,-994.629,-1000.000,0.000
1741724743.645,-777.344,-575.195,-939.453,-988.281,0.000
1741724743.649,652.832,852.539,-920.410,337.402,0.000
1741724743.653,999.512,999.512,-1000.000,999.512,0.000
1741724743.657,905.273,916.016,-977.051,904.785,0.000
1741724743.661,983.887,985.352,-1000.000,976.074,0.000
1741724743.665,969.727,970.703,-898.438,970.703,0.000
1741724743.669,969.727,970.703,-535.645,970.215,0.000
1741724743.672,969.727,970.703,-565.430,970.215,0.000
1741724743.676,969.727,970.703,-724.121,970.703,0.000
1741724743.680,969.727,970.703,-950.195,970.215,0.000
1741724743.684,970.215,970.703,-829.590,970.215,0.000
1741724743.688,969.727,970.703,-514.160,970.215,0.000
1741724743.692,969.727,970.703,-256.348,970.215,0.000
1741724743.696,969.727,970.215,34.180,970.703,0.000
1741724743.700,969.727,970.215,-374.512,970.215,0.000
1741724743.704,969.727,970.703,-361.328,970.215,0.000
1741724743.708,969.727,970.215,-221.191,970.215,0.000
1741724743.711,969.727,970.703,-400.391,970.215,0.000
1741724743.715,969.727,970.703,-356.934,970.215,0.000
1741724743.719,969.727,970.215,-247.559,970.215,0.000
1741724743.723,969.727,970.215,242.676,970.215,0.000
1741724743.727,969.727,970.703,243.652,970.215,0.000
1741724743.731,970.215,974.121,-199.219,970.703,0.000
1741724743.735,970.703,953.125,0.488,969.238,0.000
1741724743.739,907.227,936.035,527.832,910.156,0.000
1741724743.743,999.512,999.512,496.582,999.512,0.000
1741724743.747,188.965,-86.426,-16.113,161.133,0.000
1741724743.751,-1000.000,-1000.000,-223.145,-1000.000,0.000
1741724743.754,-983.887,-949.707,-375.000,-979.980,0.000
1741724743.758,-973.145,-992.676,-535.645,-975.098,0.000
1741724743.762,-1000.000,-1000.000,-593.262,-1000.000,0.000
1741724743.766,-1000.000,-1000.000,-686.035,-1000.000,0.000
1741724743.770,-1000.000,-1000.000,-659.668,-1000.000,0.000
1741724743.774,-1000.000,-1000.000,-744.141,-1000.000,0.000
1741724743.778,-1000.000,-1000.000,-959.961,-1000.000,0.000
1741724743.782,-1000.000,-1000.000,-924.805,-1000.000,0.000
1741724743.786,-1000.000,-1000.000,-774.414,-1000.000,0.000
1741724743.790,-1000.000,-1000.000,-513.672,-1000.000,0.000
1741724743.794,-1000.000,-1000.000,-694.824,-1000.000,0.000
1741724743.797,-1000.000,-1000.000,-1000.000,-1000.000,0.000
1741724743.801,-1000.000,-1000.000,-998.535,-1000.000,0.000
1741724743.805,-1000.000,-1000.000,-992.676,-1000.000,0.000
1741724743.809,-1000.000,-1000.000,-1000.000,-1000.000,0.000
1741724743.813,-1000.000,-1000.000,-999.512,-1000.000,0.000
1741724743.817,-1000.000,-1000.000,-1000.000,-1000.000,0.000
1741724743.821,-986.328,-976.562,-998.047,-998.047,0.000
1741724743.825,-959.961,-978.027,-991.211,-941.895,0.000
1741724743.829,-1000.000,-1000.000,-990.234,-1000.000,0.000
1741724743.833,13.184,139.160,-1000.000,-168.945,0.000
1741724743.836,999.512,999.512,-849.609,999.512,0.000
1741724743.840,923.340,913.574,-545.898,946.777,0.000
1741724743.844,959.473,967.773,-489.258,946.777,0.000
1741724743.848,971.680,971.191,-862.305,976.074,0.000
1741724743.852,969.727,970.703,-882.324,970.703,0.000
1741724743.856,970.215,970.215,-757.812,970.703,0.000
1741724743.860,970.215,970.703,-718.750,970.703,0.000
1741724743.864,970.215,970.703,-698.730,970.703,0.000
1741724743.868,969.727,970.703,-493.652,970.215,0.000
1741724743.872,969.727,970.215,-100.586,970.703,0.000
1741724743.876,969.727,970.703,-105.469,970.703,0.000
1741724743.879,969.727,970.703,16.113,970.703,0.000
1741724743.883,969.727,970.703,180.176,970.215,0.000
1741724743.887,969.727,970.703,109.375,970.703,0.000
1741724743.891,970.215,970.703,238.770,970.215,0.000
1741724743.895,969.727,970.703,132.812,970.215,0.000
1741724743.899,969.727,970.703,-47.363,970.703,0.000
1741724743.903,969.727,985.352,-70.801,970.215,0.000
1741724743.907,970.215,898.926,11.719,970.215,0.000
1741724743.911,970.215,999.512,59.082,970.703,0.000
1741724743.915,970.215,582.031,-112.305,970.703,0.000
1741724743.919,970.215,-860.840,-180.176,970.215,0.000
1741724743.922,969.727,-1000.000,-129.883,970.215,0.000
1741724743.926,969.727,-942.871,-62.988,971.191,0.000
1741724743.930,972.168,-1000.000,-226.074,969.727,0.000
1741724743.934,905.273,-1000.000,-302.734,903.320,0.000
1741724743.938,999.512,-1000.000,-295.410,999.512,0.000
1741724743.942,218.750,-1000.000,-482.422,199.219,0.000
1741724743.946,-1000.000,-1000.000,-577.637,-1000.000,0.000
1741724743.950,-988.770,-1000.000,-729.492,-985.840,0.000
1741724743.954,-970.703,-1000.000,-839.844,-972.168,0.000
1741724743.958,-1000.000,-1000.000,-879.395,-1000.000,0.000
1741724743.961,-1000.000,-1000.000,-988.281,-1000.000,0.000
1741724743.965,-1000.000,-1000.000,-987.793,-1000.000,0.000
1741724743.969,-1000.000,-1000.000,-1000.000,-1000.000,0.000
1741724743.973,-1000.000,-1000.000,-804.199,-1000.000,0.000
1741724743.977,-1000.000,-1000.000,-572.754,-1000.000,0.000
1741724743.981,-1000.000,-1000.000,-917.480,-1000.000,0.000
1741724743.985,-1000.000,-1000.000,-1000.000,-1000.000,0.000
1741724743.989,-1000.000,-1000.000,-944.824,-1000.000,0.000
1741724743.993,-1000.000,-1000.000,-885.742,-1000.000,0.000
1741724743.997,-931.152,-927.734,-943.359,-928.711,0.000
1741724744.001,-1000.000,-1000.000,-1000.000,-1000.000,0.000
1741724744.004,-332.031,-399.902,-957.520,-389.648,0.000
1741724744.008,999.512,972.656,-964.355,975.098,0.000
1741724744.012,972.168,985.352,-999.512,983.398,0.000
1741724744.016,933.594,928.711,-1000.000,929.199,0.000
1741724744.020,979.492,982.422,-742.676,981.934,0.000
1741724744.024,969.727,970.703,-579.590,970.215,0.000
1741724744.028,969.727,970.703,-919.922,970.215,0.000
1741724744.032,969.727,970.703,-1000.000,970.703,0.000
1741724744.036,969.727,970.703,-907.227,970.215,0.000
1741724744.040,969.727,970.703,-851.562,970.703,0.000
1741724744.043,970.215,970.703,-807.129,970.703,0.000
1741724744.047,970.215,970.703,-937.012,970.215,0.000
1741724744.051,969.727,970.703,-907.715,970.215,0.000
1741724744.055,969.727,970.215,-735.352,970.215,0.000
1741724744.059,969.727,970.215,-595.215,970.215,0.000
1741724744.063,969.727,970.703,-689.453,970.703,0.000
1741724744.067,976.074,971.191,-373.047,972.656,0.000
1741724744.071,900.879,907.715,-58.105,905.762,0.000
1741724744.075,999.512,999.512,-506.836,999.512,0.000
1741724744.079,292.480,189.453,-803.711,219.238,0.000
1741724744.083,-1000.000,-1000.000,-613.770,-1000.000,0.000
1741724744.086,-1000.000,-983.887,-463.867,-988.770,0.000
1741724744.090,-964.844,-973.145,-503.418,-970.703,0.000
1741724744.094,0.000,-1000.000,-594.727,-1000.000,0.000
1741724744.098,0.000,-1000.000,-990.723,-1000.000,0.000
1741724744.102,0.000,-1000.000,-892.578,-1000.000,0.000
1741724744.106,0.000,-1000.000,-634.766,-1000.000,0.000
1741724744.110,0.000,-1000.000,-791.992,-1000.000,0.000
1741724744.114,0.000,-1000.000,-610.352,-1000.000,0.000
1741724744.118,0.000,-1000.000,-376.465,-1000.000,0.000
1741724744.122,0.000,-1000.000,-406.250,-1000.000,0.000
1741724744.125,0.000,-1000.000,-618.164,-1000.000,0.000
1741724744.129,0.000,-1000.000,-987.793,-1000.000,0.000
1741724744.133,0.000,-1000.000,-975.098,-1000.000,0.000
1741724744.137,0.000,-1000.000,-879.395,-1000.000,0.000
1741724744.141,-1000.000,-1000.000,-927.246,-1000.000,0.000
1741724744.145,-1000.000,-1000.000,-979.980,-1000.000,0.000
1741724744.149,-992.188,-985.840,-996.094,-999.512,0.000
1741724744.153,-950.684,-960.938,-1000.000,-939.453,0.000
1741724744.157,-1000.000,-1000.000,-974.609,-1000.000,0.000
1741724744.161,-72.754,16.602,-831.543,-196.777,0.000
1741724744.165,999.512,999.512,-695.801,999.512,0.000
1741724744.168,933.594,924.316,-879.883,951.172,0.000
1741724744.172,953.613,960.449,-593.262,945.312,0.000
1741724744.176,973.145,972.656,-103.027,976.562,0.000
1741724744.180,969.727,970.215,-373.047,970.215,0.000
1741724744.184,969.727,970.703,-602.051,970.215,0.000
1741724744.188,969.727,970.215,-468.750,970.215,0.000
1741724744.192,969.727,970.215,-137.695,970.215,0.000
1741724744.196,969.727,970.703,9.766,970.215,0.000
1741724744.200,969.727,970.703,-148.438,970.703,0.000
1741724744.204,969.727,970.215,-333.496,970.703,0.000
1741724744.208,969.727,970.703,86.426,970.703,0.000
1741724744.211,969.727,970.703,226.562,970.703,0.000
1741724744.215,969.727,970.703,-259.766,970.215,0.000
1741724744.219,969.727,970.703,-198.242,969.727,0.000
1741724744.223,970.703,979.980,-95.215,975.098,0.000
1741724744.227,964.355,898.438,-147.461,954.590,0.000
1741724744.231,916.016,999.512,-220.703,920.410,0.000
1741724744.235,999.512,376.953,-309.082,999.512,0.000
1741724744.239,84.961,-995.605,-62.500,-48.340,0.000
1741724744.243,-1000.000,-1000.000,140.625,-1000.000,0.000
1741724744.247,-969.238,-958.008,-20.020,-958.496,0.000
1741724744.250,-980.957,-1000.000,-131.348,-988.281,0.000
1741724744.254,-1000.000,-1000.000,334.473,-1000.000,0.000
1741724744.258,-1000.000,-1000.000,578.125,-1000.000,0.000
1741724744.262,-1000.000,-1000.000,220.703,-1000.000,0.000
1741724744.266,-1000.000,-1000.000,-136.230,-1000.000,0.000
1741724744.270,-1000.000,-1000.000,-510.254,-1000.000,0.000
1741724744.274,-1000.000,-1000.000,-386.719,-1000.000,0.000
1741724744.278,-1000.000,-1000.000,-339.355,-1000.000,0.000
1741724744.282,-1000.000,-1000.000,-542.480,-1000.000,0.000
1741724744.286,-1000.000,-1000.000,-564.941,-1000.000,0.000
1741724744.290,-1000.000,-1000.000,-357.422,-1000.000,0.000
1741724744.293,-1000.000,-1000.000,-440.430,-1000.000,0.000
1741724744.297,-1000.000,-1000.000,-946.289,-1000.000,0.000
1741724744.301,-933.105,-935.547,-831.055,-926.758,0.000
1741724744.305,-1000.000,-1000.000,-513.672,-1000.000,0.000
1741724744.309,-289.551,-252.930,-636.230,-544.434,0.000
1741724744.313,999.512,999.512,-948.242,886.719,0.000
1741724744.317,965.332,959.961,-955.078,999.512,0.000
1741724744.321,937.012,940.430,-469.727,917.480,0.000
1741724744.325,978.516,978.027,-66.895,985.352,0.000
1741724744.329,969.727,970.703,-339.844,970.703,0.000
1741724744.333,969.727,970.703,-709.961,970.703,0.000
1741724744.336,969.727,970.703,-642.090,970.215,0.000
1741724744.340,970.215,970.703,-615.723,970.215,0.000
1741724744.344,969.727,970.215,-565.918,970.703,0.000
1741724744.348,969.727,970.703,-425.781,970.703,0.000
1741724744.352,985.352,985.840,-178.223,982.910,0.000
1741724744.356,902.832,895.996,-377.930,897.949,0.000
1741724744.360,999.512,999.512,-903.320,999.512,0.000
1741724744.364,689.453,549.805,-882.812,476.074,0.000
1741724744.368,-757.324,-898.926,-704.102,-936.035,0.000
1741724744.372,-1000.000,-1000.000,-573.242,-1000.000,0.000
1741724744.375,-937.012,-943.848,-649.902,-950.195,0.000
1741724744.379,-1000.000,-1000.000,-936.035,-1000.000,0.000
1741724744.383,-1000.000,-1000.000,-1000.000,-1000.000,0.000
1741724744.387,-1000.000,-1000.000,-989.746,-1000.000,0.000
1741724744.391,-1000.000,-1000.000,-995.605,-1000.000,0.000
1741724744.395,-1000.000,-1000.000,-1000.000,-1000.000,0.000
1741724744.399,-1000.000,-1000.000,-887.695,-1000.000,0.000
