timestamps,TP9,AF7,AF8,TP10,Right AUX
1741723276.922,-17.090,-26.367,-37.109,-17.090,0.000
1741723276.926,-33.203,6.836,-26.367,-11.230,0.000
1741723276.930,0.488,13.672,-10.742,0.977,0.000
1741723276.933,37.598,-24.414,-8.301,18.066,0.000
1741723276.937,19.043,-30.273,-1.953,20.996,0.000
1741723276.941,-16.602,60.059,0.488,1.465,0.000
1741723276.945,-20.996,-34.180,-22.461,-12.207,0.000
1741723276.949,7.324,-91.797,-24.902,3.418,0.000
1741723276.953,24.902,55.664,-4.395,25.391,0.000
1741723276.957,0.000,55.664,-0.977,15.625,0.000
1741723276.961,-34.180,-7.324,-12.207,-17.090,0.000
1741723276.965,-13.672,-58.105,-16.602,-12.207,0.000
1741723276.969,12.207,-17.578,-28.320,3.418,0.000
1741723276.972,-6.348,42.969,-21.484,-1.465,0.000
1741723276.976,-29.297,-4.883,-13.672,-10.254,0.000
1741723276.980,-4.883,-53.711,-20.020,-5.859,0.000
1741723276.984,29.785,5.371,-15.137,14.160,0.000
1741723276.988,9.277,68.848,-12.207,14.648,0.000
1741723276.992,-20.020,-59.570,-20.020,7.324,0.000
1741723276.996,15.137,-32.715,5.371,30.273,0.000
1741723277.000,31.250,34.668,14.160,31.250,0.000
1741723277.004,-3.906,28.809,-11.719,8.301,0.000
1741723277.008,-48.340,9.277,-24.902,-15.137,0.000
1741723277.011,-59.082,-96.191,-25.391,-26.367,0.000
1741723277.015,-6.836,20.996,-12.695,-7.812,0.000
1741723277.019,1.465,32.715,-8.301,-1.465,0.000
1741723277.023,-34.180,-47.852,-15.137,-17.578,0.000
1741723277.027,-42.480,-50.293,-28.809,-27.344,0.000
1741723277.031,-9.277,-22.949,-31.738,-13.184,0.000
1741723277.035,28.320,130.371,-2.441,12.207,0.000
1741723277.039,-11.719,19.043,-9.766,-7.812,0.000
1741723277.043,-40.527,-143.555,-26.855,-24.414,0.000
1741723277.047,-0.488,-48.828,-23.926,-6.836,0.000
1741723277.051,20.508,31.250,-19.043,-2.930,0.000
1741723277.054,-6.836,67.871,-4.395,-11.719,0.000
1741723277.058,-38.574,-12.695,0.977,-25.391,0.000
1741723277.062,-18.066,-62.500,-3.906,-16.602,0.000
1741723277.066,11.719,65.918,-17.578,-6.836,0.000
1741723277.070,8.301,96.680,-7.812,-1.465,0.000
1741723277.074,-24.902,-9.277,-11.719,-18.555,0.000
1741723277.078,-27.344,-14.648,-26.367,-33.691,0.000
1741723277.082,4.395,28.809,-21.973,-19.043,0.000
1741723277.086,2.930,-34.180,-34.668,-14.648,0.000
1741723277.090,-32.715,-121.582,-47.852,-23.926,0.000
1741723277.094,-54.688,-134.766,-49.316,-32.227,0.000
1741723277.097,-23.438,-104.004,-48.340,-31.738,0.000
1741723277.101,2.930,34.668,-24.902,-15.625,0.000
1741723277.105,-20.508,87.891,5.859,-11.230,0.000
1741723277.109,-34.180,70.312,8.301,-23.926,0.000
1741723277.113,-6.348,20.508,-0.488,-12.695,0.000
1741723277.117,11.719,27.344,10.742,1.465,0.000
1741723277.121,-29.297,-60.547,-6.348,-19.043,0.000
1741723277.125,-62.012,-71.777,-27.344,-32.715,0.000
1741723277.129,-29.785,152.832,-6.836,-23.438,0.000
1741723277.133,22.461,112.305,3.906,-1.953,0.000
1741723277.137,3.418,-104.004,-15.625,-5.859,0.000
1741723277.140,-52.246,-93.262,-25.879,-37.598,0.000
1741723277.144,-36.621,-8.301,-12.207,-36.621,0.000
1741723277.148,-9.277,-37.598,-13.672,-24.414,0.000
1741723277.152,-1.953,-63.965,-5.859,-9.766,0.000
1741723277.156,-16.113,-38.086,7.324,-7.812,0.000
1741723277.160,-52.734,-57.129,-7.812,-35.645,0.000
1741723277.164,-28.809,0.488,-18.066,-35.645,0.000
1741723277.168,14.648,35.645,-3.418,-1.953,0.000
1741723277.172,-2.441,27.832,5.371,1.465,0.000
1741723277.176,-48.828,-4.883,-12.695,-24.902,0.000
1741723277.180,-40.527,-28.320,-25.391,-29.785,0.000
1741723277.183,-4.395,34.180,-14.648,-11.230,0.000
1741723277.187,-11.230,-15.137,-9.277,-5.859,0.000
1741723277.191,-40.039,-79.102,-21.484,-22.949,0.000
1741723277.195,-48.828,-98.145,-28.809,-41.016,0.000
1741723277.199,-26.367,-43.457,-25.879,-34.180,0.000
1741723277.203,-31.250,-7.812,-24.414,-30.273,0.000
1741723277.207,-60.059,-19.531,-28.320,-41.016,0.000
1741723277.211,-49.316,33.203,-20.996,-41.992,0.000
1741723277.215,-11.719,64.453,-14.648,-23.926,0.000
1741723277.219,-19.531,-47.852,-23.438,-20.020,0.000
1741723277.223,-43.457,6.836,-22.461,-26.367,0.000
1741723277.226,-53.711,31.250,-19.043,-29.785,0.000
1741723277.230,-23.926,-37.598,-9.766,-11.230,0.000
1741723277.234,5.371,-34.180,-15.137,-5.859,0.000
1741723277.238,-17.578,-43.945,-24.902,-25.391,0.000
1741723277.242,-45.410,-37.109,-20.508,-33.203,0.000
1741723277.246,-20.996,-91.309,-26.367,-30.762,0.000
1741723277.250,5.371,-44.922,-30.762,-23.926,0.000
1741723277.254,-23.438,-66.406,-22.461,-25.879,0.000
1741723277.258,-38.574,-13.184,-12.207,-23.438,0.000
1741723277.262,-29.297,-20.508,-25.391,-28.320,0.000
1741723277.265,-13.672,-6.836,-29.785,-28.320,0.000
1741723277.269,0.000,99.121,-7.324,-8.301,0.000
1741723277.273,-19.531,80.566,1.465,-17.578,0.000
1741723277.277,-33.203,-31.250,-8.301,-30.273,0.000
1741723277.281,-8.301,-88.379,-16.602,-22.461,0.000
1741723277.285,7.324,-18.555,-28.320,-23.438,0.000
1741723277.289,-12.695,-46.875,-31.250,-36.621,0.000
1741723277.293,-8.789,21.484,-20.020,-38.086,0.000
1741723277.297,21.973,127.930,-4.883,-18.555,0.000
1741723277.301,19.531,20.996,-5.859,-11.230,0.000
1741723277.305,-22.949,-58.105,-21.484,-27.832,0.000
1741723277.308,-65.430,-82.031,-25.391,-41.016,0.000
1741723277.312,-36.133,-24.414,-12.695,-19.531,0.000
1741723277.316,14.160,86.914,3.418,12.695,0.000
1741723277.320,1.465,7.324,-3.906,12.207,0.000
1741723277.324,-33.691,-64.453,-20.020,-6.836,0.000
1741723277.328,-40.527,-73.730,-29.297,-21.484,0.000
1741723277.332,-4.883,-47.852,-14.648,-6.348,0.000
1741723277.336,4.883,-18.555,-4.883,4.395,0.000
1741723277.340,-33.203,-41.504,-18.066,-13.184,0.000
1741723277.344,-40.527,-0.977,-17.578,-20.508,0.000
1741723277.348,-12.695,2.441,-20.996,-12.207,0.000
1741723277.351,10.742,51.270,-8.789,11.230,0.000
1741723277.355,-12.695,8.301,-6.348,14.160,0.000
1741723277.359,-60.547,-83.984,-26.855,-30.762,0.000
1741723277.363,-43.457,63.477,-22.461,-43.457,0.000
1741723277.367,2.441,5.371,-13.672,-13.184,0.000
1741723277.371,-13.184,-92.285,-28.320,-24.902,0.000
1741723277.375,-62.012,-54.199,-37.109,-50.781,0.000
1741723277.379,-44.434,-16.113,-23.926,-39.551,0.000
1741723277.383,-23.438,-34.668,-38.574,-36.133,0.000
1741723277.387,-40.039,-104.492,-46.875,-45.898,0.000
1741723277.390,-48.828,-11.719,-20.020,-45.898,0.000
1741723277.394,-43.457,23.926,-7.812,-40.527,0.000
1741723277.398,-32.715,-50.293,-27.344,-35.645,0.000
1741723277.402,-25.391,-59.570,-36.621,-25.391,0.000
1741723277.406,-40.039,-32.715,-33.691,-31.250,0.000
1741723277.410,-40.527,81.543,-11.230,-31.250,0.000
1741723277.414,-10.742,62.500,5.371,-21.484,0.000
1741723277.418,-1.953,-52.734,-17.090,-14.160,0.000
1741723277.422,-31.250,-92.285,-32.715,-18.555,0.000
1741723277.426,-39.062,-32.227,-19.043,-21.484,0.000
1741723277.430,-15.137,5.371,-6.836,-20.996,0.000
1741723277.433,2.930,-49.805,-4.883,-8.301,0.000
1741723277.437,-4.883,-55.664,-7.324,-0.488,0.000
1741723277.441,-19.043,-16.113,-5.371,-5.371,0.000
1741723277.445,-15.137,-45.410,-13.672,-18.066,0.000
1741723277.449,10.742,19.043,-12.207,-5.371,0.000
1741723277.453,13.184,69.336,-3.906,11.230,0.000
1741723277.457,-27.344,31.738,-17.090,-17.090,0.000
1741723277.461,-37.598,-52.734,-26.367,-28.320,0.000
1741723277.465,11.230,-2.930,-8.789,-4.395,0.000
1741723277.469,19.531,13.672,0.488,6.348,0.000
1741723277.472,-39.062,-99.121,-26.367,-15.137,0.000
1741723277.476,-70.312,-70.312,-42.480,-39.062,0.000
1741723277.480,-45.898,-68.359,-41.016,-40.039,0.000
1741723277.484,0.488,-12.695,-33.203,-11.719,0.000
1741723277.488,0.488,20.020,-22.949,-7.324,0.000
1741723277.492,-46.387,-32.227,-26.367,-36.133,0.000
1741723277.496,-37.598,-6.836,-25.879,-40.527,0.000
1741723277.500,9.766,18.066,-14.160,-18.066,0.000
1741723277.504,-6.836,68.359,-7.812,-27.832,0.000
1741723277.508,-44.922,-24.414,-18.066,-45.410,0.000
1741723277.512,-39.551,-93.262,-35.156,-41.992,0.000
1741723277.515,-15.625,-98.145,-35.156,-24.902,0.000
1741723277.519,-11.719,-32.715,-27.344,-19.043,0.000
1741723277.523,-28.320,34.668,-14.648,-26.855,0.000
1741723277.527,-44.434,-91.309,-22.461,-31.250,0.000
1741723277.531,-6.348,-39.551,-26.367,-19.531,0.000
1741723277.535,18.555,21.973,-19.043,-11.230,0.000
1741723277.539,-32.715,-109.375,-35.645,-25.391,0.000
1741723277.543,-54.688,-43.457,-45.410,-30.762,0.000
1741723277.547,-7.812,77.637,-32.227,-4.395,0.000
1741723277.551,22.461,93.262,-11.230,14.648,0.000
1741723277.555,-20.020,-35.645,-17.578,-8.301,0.000
1741723277.558,-56.152,-70.801,-22.949,-26.367,0.000
1741723277.562,-42.969,-62.500,-18.066,-20.508,0.000
1741723277.566,-1.953,-28.320,-19.531,-3.418,0.000
1741723277.570,-7.812,-55.176,-17.578,-8.301,0.000
1741723277.574,-36.133,-53.711,-13.184,-19.043,0.000
1741723277.578,-26.855,55.176,-11.719,-17.090,0.000
1741723277.582,14.160,19.043,-7.324,-0.488,0.000
1741723277.586,24.414,-23.926,-8.789,5.371,0.000
1741723277.590,-11.230,-11.719,-22.461,-20.020,0.000
1741723277.594,-35.156,11.719,-25.391,-31.738,0.000
1741723277.598,-15.625,20.508,-16.113,-10.742,0.000
1741723277.601,6.836,10.742,-9.766,4.395,0.000
1741723277.605,-26.367,-64.941,-21.484,-10.254,0.000
1741723277.609,-46.387,-58.105,-23.438,-11.719,0.000
1741723277.613,-33.691,-59.082,-20.020,-16.113,0.000
1741723277.617,-8.789,-52.734,-14.160,-13.672,0.000
1741723277.621,-2.441,-7.812,0.488,-1.465,0.000
1741723277.625,-31.250,14.160,14.160,-6.836,0.000
1741723277.629,-34.668,1.953,3.906,-21.973,0.000
1741723277.633,-5.371,18.555,-9.277,-18.066,0.000
1741723277.637,7.812,106.934,2.930,-6.836,0.000
1741723277.641,-20.020,-25.879,4.395,-18.555,0.000
1741723277.644,-35.645,-54.688,-3.906,-24.902,0.000
1741723277.648,-7.812,18.066,-11.230,-18.066,0.000
1741723277.652,-7.324,-35.156,-16.602,-15.137,0.000
1741723277.656,-30.273,-13.672,-17.578,-14.160,0.000
1741723277.660,-45.898,-54.199,-38.086,-28.809,0.000
1741723277.664,-25.391,-59.570,-41.504,-28.320,0.000
1741723277.668,14.160,-6.348,-2.930,2.930,0.000
1741723277.672,-12.207,-3.906,11.719,1.465,0.000
1741723277.676,-51.270,32.715,-11.719,-26.367,0.000
1741723277.680,-31.738,64.453,-21.973,-17.578,0.000
1741723277.683,-4.395,29.785,-16.602,-1.465,0.000
1741723277.687,-29.785,-56.641,-22.461,-21.973,0.000
1741723277.691,-65.430,-50.781,-30.762,-47.363,0.000
1741723277.695,-48.340,18.066,-16.602,-36.133,0.000
1741723277.699,-13.184,-8.789,-17.090,-13.672,0.000
1741723277.703,-15.625,-41.992,-29.297,-12.695,0.000
1741723277.707,-35.645,-78.125,-33.203,-20.508,0.000
1741723277.711,-36.621,-138.672,-30.273,-20.996,0.000
1741723277.715,-15.625,-16.602,-16.602,-16.602,0.000
1741723277.719,-16.602,0.000,-20.996,-20.996,0.000
1741723277.723,-48.828,-32.715,-28.809,-31.250,0.000
1741723277.726,-59.570,25.879,-26.367,-39.062,0.000
1741723277.730,-25.391,16.602,-25.879,-24.414,0.000
1741723277.734,16.113,70.801,-24.902,4.883,0.000
1741723277.738,-2.930,130.371,-20.020,2.441,0.000
1741723277.742,-56.641,0.977,-12.695,-19.043,0.000
1741723277.746,-62.012,-81.055,-20.020,-29.297,0.000
1741723277.750,-9.277,3.906,-21.484,-9.277,0.000
1741723277.754,3.906,-24.902,-8.301,7.324,0.000
1741723277.758,-37.109,-28.809,-7.324,-14.160,0.000
1741723277.762,-40.527,12.207,-13.672,-27.344,0.000
1741723277.766,-4.395,31.738,-15.137,-5.859,0.000
1741723277.769,-19.043,-66.406,-38.086,-18.066,0.000
1741723277.773,-53.711,-90.332,-37.598,-32.715,0.000
1741723277.777,-58.594,-6.348,-19.531,-33.203,0.000
1741723277.781,-39.551,-28.320,-18.555,-36.621,0.000
1741723277.785,-20.508,2.441,-15.625,-23.438,0.000
1741723277.789,-40.039,24.414,-25.879,-30.273,0.000
1741723277.793,-56.152,-41.504,-31.250,-41.992,0.000
1741723277.797,-30.762,-82.031,-22.949,-28.809,0.000
1741723277.801,-8.301,-12.695,-22.461,-12.207,0.000
1741723277.805,-15.137,117.188,-20.508,-9.766,0.000
1741723277.808,-53.711,19.531,-28.320,-31.738,0.000
1741723277.812,-53.223,-46.387,-33.691,-41.016,0.000
1741723277.816,-17.578,-24.902,-30.762,-29.785,0.000
1741723277.820,-19.043,-7.812,-17.578,-22.461,0.000
1741723277.824,-41.016,17.578,-7.324,-18.066,0.000
1741723277.828,-41.992,-47.852,-12.695,-20.996,0.000
1741723277.832,-11.230,58.594,-2.441,-20.996,0.000
1741723277.836,-4.395,60.059,0.488,-16.602,0.000
1741723277.840,-36.621,-52.246,-10.254,-25.391,0.000
1741723277.844,-41.016,-15.625,-13.184,-30.273,0.000
1741723277.848,-11.230,-3.418,-17.090,-16.602,0.000
1741723277.851,-7.812,-37.598,-29.785,-13.672,0.000
1741723277.855,-38.574,-49.316,-41.992,-29.785,0.000
1741723277.859,-50.781,-19.043,-39.062,-37.109,0.000
1741723277.863,-19.043,9.766,-22.949,-23.438,0.000
1741723277.867,1.465,-12.695,-9.766,-3.418,0.000
1741723277.871,-22.461,-60.059,-14.648,-8.301,0.000
1741723277.875,-53.223,-55.176,-40.039,-33.203,0.000
1741723277.879,-41.992,76.172,-35.645,-23.926,0.000
1741723277.883,-7.324,45.410,-7.812,-9.766,0.000
1741723277.887,-18.555,-52.246,-4.395,-20.508,0.000
1741723277.890,-40.527,-65.430,-10.742,-25.391,0.000
1741723277.894,-20.996,20.020,-6.836,-11.719,0.000
1741723277.898,0.488,67.383,-12.695,-8.301,0.000
1741723277.902,2.930,13.672,-14.160,-15.137,0.000
1741723277.906,-27.832,-73.242,-20.996,-23.926,0.000
1741723277.910,-40.527,-100.586,-25.879,-31.250,0.000
1741723277.914,-4.883,8.789,-18.066,-21.973,0.000
1741723277.918,11.719,57.129,-14.648,-14.648,0.000
1741723277.922,-14.160,-86.426,-18.066,-21.484,0.000
1741723277.926,-41.016,-62.012,-22.949,-28.320,0.000
1741723277.930,-35.645,-18.555,-22.461,-23.438,0.000
1741723277.933,-3.906,-27.832,-20.996,-9.766,0.000
1741723277.937,-6.836,0.488,-23.926,-9.766,0.000
1741723277.941,-30.762,-49.805,-19.531,-19.043,0.000
1741723277.945,-23.438,-33.691,-19.531,-14.648,0.000
1741723277.949,6.836,37.598,-7.812,-6.348,0.000
1741723277.953,4.395,-33.691,-1.465,-4.883,0.000
1741723277.957,-37.598,-80.566,-9.277,-23.926,0.000
1741723277.961,-50.293,51.758,-17.090,-34.668,0.000
1741723277.965,-16.602,-7.812,-22.949,-16.602,0.000
1741723277.969,2.441,-56.641,-12.207,-11.719,0.000
1741723277.973,-16.602,24.902,8.789,-12.695,0.000
1741723277.976,-19.531,31.738,15.625,-1.953,0.000
1741723277.980,6.836,-10.742,8.301,-1.465,0.000
1741723277.984,1.465,-55.664,-7.324,-22.461,0.000
1741723277.988,-42.969,-77.148,-30.273,-45.410,0.000
1741723277.992,-75.684,-129.883,-48.340,-55.664,0.000
1741723277.996,-54.199,-16.113,-39.062,-43.457,0.000
1741723278.000,-8.789,54.199,-20.996,-23.926,0.000
1741723278.004,-22.949,-8.789,-23.438,-28.320,0.000
1741723278.008,-73.730,-115.234,-38.574,-51.270,0.000
1741723278.012,-61.035,-63.965,-33.203,-39.551,0.000
1741723278.016,-13.184,19.531,-23.926,-23.438,0.000
1741723278.019,-10.742,86.914,-29.297,-27.832,0.000
1741723278.023,-45.410,-31.250,-32.715,-34.668,0.000
1741723278.027,-55.176,-151.367,-28.809,-40.039,0.000
1741723278.031,-3.418,13.672,-8.789,-11.719,0.000
1741723278.035,36.621,62.500,0.977,12.695,0.000
1741723278.039,-0.488,13.672,-9.277,-4.883,0.000
1741723278.043,-43.945,-73.242,-20.020,-25.391,0.000
1741723278.047,-5.371,-55.176,-11.719,-5.859,0.000
1741723278.051,23.438,8.301,-18.066,7.324,0.000
1741723278.055,-0.488,33.203,-9.277,-3.418,0.000
1741723278.059,-27.832,36.133,-2.930,-16.602,0.000
1741723278.062,-18.066,4.395,-21.973,-16.602,0.000
1741723278.066,14.648,55.176,-21.484,-1.953,0.000
1741723278.070,10.254,20.508,-5.859,-1.465,0.000
1741723278.074,-21.973,-63.477,-2.930,-18.066,0.000
1741723278.078,-25.391,-16.602,-10.254,-19.531,0.000
1741723278.082,17.578,12.695,-4.395,2.441,0.000
1741723278.086,21.973,21.973,8.301,6.836,0.000
1741723278.090,-26.855,-19.531,-7.812,-12.207,0.000
1741723278.094,-60.059,-126.953,-25.391,-30.762,0.000
1741723278.098,-26.855,-79.102,-26.855,-29.297,0.000
1741723278.101,3.418,7.812,-28.320,-15.625,0.000
1741723278.105,-18.066,-4.395,-18.066,-16.602,0.000
1741723278.109,-51.270,-65.918,-18.066,-34.180,0.000
1741723278.113,-31.250,31.738,-17.578,-31.250,0.000
1741723278.117,-0.977,7.812,-24.902,-17.090,0.000
1741723278.121,-30.273,-88.379,-41.504,-28.809,0.000
1741723278.125,-67.871,-44.922,-49.805,-51.270,0.000
1741723278.129,-52.734,-61.035,-40.039,-53.711,0.000
1741723278.133,-1.953,46.875,-5.859,-28.320,0.000
1741723278.137,-17.090,49.316,-8.301,-21.484,0.000
1741723278.141,-47.852,-31.738,-23.438,-32.227,0.000
1741723278.144,-36.621,9.766,-20.996,-34.180,0.000
1741723278.148,-41.992,-70.312,-33.691,-47.363,0.000
1741723278.152,-39.551,-85.449,-39.062,-45.898,0.000
1741723278.156,-55.176,-5.859,-34.180,-40.039,0.000
1741723278.160,-73.242,49.805,-35.156,-45.898,0.000
1741723278.164,-42.969,7.324,-35.645,-41.504,0.000
1741723278.168,-14.160,-65.918,-37.109,-28.809,0.000
1741723278.172,-30.762,-58.594,-24.902,-39.551,0.000
1741723278.176,-65.430,-24.414,-17.578,-58.105,0.000
1741723278.180,-45.410,20.508,-12.695,-45.898,0.000
1741723278.183,6.348,106.445,-1.953,-22.461,0.000
1741723278.187,-4.883,-11.719,-16.602,-29.785,0.000
1741723278.191,-39.062,-108.398,-28.320,-54.199,0.000
1741723278.195,-27.344,-23.438,-18.066,-39.062,0.000
1741723278.199,2.930,20.508,-19.043,-12.207,0.000
1741723278.203,-4.883,-26.855,-13.184,-12.695,0.000
1741723278.207,-28.809,21.484,3.418,-17.090,0.000
1741723278.211,-36.133,-11.230,-5.371,-19.531,0.000
1741723278.215,-20.020,-108.887,-24.902,-12.207,0.000
1741723278.219,9.766,20.508,-6.836,15.137,0.000
1741723278.223,-3.906,-18.555,16.113,21.973,0.000
1741723278.226,-37.598,-101.074,0.977,1.465,0.000
1741723278.230,-5.859,44.922,2.930,0.977,0.000
1741723278.234,22.461,56.152,3.906,12.207,0.000
1741723278.238,-16.113,-88.867,-22.461,-2.441,0.000
1741723278.242,-47.852,-101.074,-38.086,-23.926,0.000
1741723278.246,-45.898,-83.008,-44.434,-33.203,0.000
1741723278.250,-12.207,6.348,-17.578,-12.207,0.000
1741723278.254,-3.418,87.891,-0.977,1.953,0.000
1741723278.258,-41.992,-43.457,-27.344,-19.043,0.000
1741723278.262,-44.922,-99.609,-19.043,-18.066,0.000
1741723278.266,10.742,-15.625,9.277,6.348,0.000
1741723278.269,12.207,4.395,7.812,3.418,0.000
1741723278.273,-37.109,-121.094,-3.906,-15.137,0.000
1741723278.277,-51.270,-126.465,-10.254,-27.344,0.000
1741723278.281,-8.789,32.715,-6.836,-7.324,0.000
1741723278.285,4.395,14.160,-14.160,0.000,0.000
1741723278.289,-29.785,-11.719,-34.180,-28.320,0.000
1741723278.293,-59.082,5.859,-36.133,-40.039,0.000
1741723278.297,-46.387,-13.672,-16.113,-24.414,0.000
1741723278.301,-9.766,25.391,-2.441,-12.695,0.000
1741723278.305,-22.461,-50.781,-20.020,-24.414,0.000
1741723278.308,-54.688,-71.289,-29.785,-33.691,0.000
1741723278.312,-35.156,36.133,-13.672,-25.391,0.000
1741723278.316,2.930,-28.809,-10.254,-11.719,0.000
1741723278.320,4.883,-29.785,-20.996,-9.766,0.000
1741723278.324,-31.250,-21.484,-19.531,-12.207,0.000
1741723278.328,-40.039,-35.156,-14.160,-8.301,0.000
1741723278.332,-11.230,6.348,-20.020,-15.137,0.000
1741723278.336,0.000,22.949,-15.625,-13.184,0.000
1741723278.340,-31.738,34.180,-13.672,-20.020,0.000
1741723278.344,-59.082,-11.719,-30.273,-40.039,0.000
1741723278.348,-22.949,15.137,-21.973,-23.438,0.000
1741723278.351,19.531,27.832,-7.812,-4.883,0.000
1741723278.355,-23.926,-92.285,-36.133,-26.855,0.000
1741723278.359,-69.336,-133.789,-57.129,-39.551,0.000
1741723278.363,-45.898,-53.223,-48.340,-38.086,0.000
1741723278.367,-5.859,20.996,-33.203,-25.879,0.000
1741723278.371,-22.461,26.367,-23.438,-25.879,0.000
1741723278.375,-62.988,-34.668,-32.715,-44.434,0.000
1741723278.379,-58.594,-57.129,-50.781,-45.898,0.000
1741723278.383,3.906,19.043,-22.461,-3.906,0.000
1741723278.387,3.418,4.395,-12.695,-3.906,0.000
1741723278.391,-46.875,-17.090,-41.992,-43.945,0.000
1741723278.394,-51.758,37.598,-41.992,-43.457,0.000
1741723278.398,-24.414,-87.891,-35.645,-29.297,0.000
1741723278.402,0.488,-55.176,-23.926,-14.160,0.000
1741723278.406,-25.879,-37.598,-20.508,-20.020,0.000
1741723278.410,-55.664,-45.898,-27.832,-30.273,0.000
1741723278.414,-28.809,-16.113,-23.926,-21.973,0.000
1741723278.418,0.488,-25.391,-15.137,-15.625,0.000
1741723278.422,-22.949,2.930,-16.602,-22.949,0.000
1741723278.426,-54.199,41.992,-22.461,-40.039,0.000
1741723278.430,-15.137,-23.926,-6.348,-16.113,0.000
1741723278.434,22.949,-41.504,0.488,5.859,0.000
1741723278.437,-14.648,-25.391,-15.625,-18.555,0.000
1741723278.441,-39.062,76.172,-15.137,-28.809,0.000
1741723278.445,-39.551,-20.020,-41.504,-33.691,0.000
1741723278.449,-9.277,-115.723,-53.711,-18.555,0.000
1741723278.453,-8.789,-20.508,-26.367,-12.207,0.000
1741723278.457,-49.316,-54.199,-9.277,-31.250,0.000
1741723278.461,-44.434,-99.121,3.906,-31.738,0.000
1741723278.465,-6.836,-5.371,11.230,-17.090,0.000
1741723278.469,1.953,103.516,8.301,-2.441,0.000
1741723278.473,-32.227,54.199,-1.465,-9.766,0.000
1741723278.476,-70.312,-74.707,-14.160,-32.715,0.000
1741723278.480,-33.203,22.949,-9.766,-10.742,0.000
1741723278.484,-8.301,43.945,-26.367,-1.953,0.000
1741723278.488,-39.551,-37.109,-39.062,-25.879,0.000
1741723278.492,-61.523,-107.422,-26.367,-33.203,0.000
1741723278.496,-52.246,-101.074,-24.902,-27.832,0.000
1741723278.500,-12.695,-39.551,-22.949,-13.184,0.000
1741723278.504,4.395,-51.758,-11.230,-4.883,0.000
1741723278.508,-35.645,-43.945,-10.254,-19.531,0.000
1741723278.512,-36.133,53.223,-8.301,-29.785,0.000
1741723278.516,10.742,41.016,1.465,-6.836,0.000
1741723278.519,6.348,15.625,5.859,2.930,0.000
1741723278.523,-43.945,-7.324,0.977,-17.578,0.000
1741723278.527,-65.918,-86.426,-8.301,-35.156,0.000
1741723278.531,-24.414,-40.527,-2.441,-19.043,0.000
1741723278.535,11.230,79.590,2.441,2.441,0.000
1741723278.539,-31.738,39.062,-10.742,-28.320,0.000
1741723278.543,-93.262,-130.859,-36.133,-73.242,0.000
1741723278.547,-62.500,-136.719,-45.898,-56.641,0.000
1741723278.551,-7.812,-42.969,-28.320,-21.484,0.000
1741723278.555,-22.949,-5.859,-8.789,-33.691,0.000
1741723278.558,-60.547,-56.152,-0.977,-43.457,0.000
1741723278.562,-37.598,17.578,0.977,-20.508,0.000
1741723278.566,-0.488,9.277,-5.859,-13.184,0.000
1741723278.570,-1.953,-2.930,9.766,-8.789,0.000
1741723278.574,-55.664,22.461,4.883,-18.555,0.000
1741723278.578,-76.660,-53.223,-23.926,-42.480,0.000
1741723278.582,-31.250,-24.902,-28.809,-28.809,0.000
1741723278.586,-10.742,70.312,-18.555,-12.207,0.000
1741723278.590,-29.297,0.488,-10.742,-22.949,0.000
1741723278.594,-48.828,-13.672,-9.277,-38.086,0.000
1741723278.598,-29.785,7.324,-11.719,-41.016,0.000
1741723278.601,-9.277,-64.941,-17.578,-35.645,0.000
1741723278.605,-13.672,52.734,-4.395,-21.484,0.000
1741723278.609,-22.949,81.055,8.301,-14.648,0.000
1741723278.613,-18.066,-37.109,-23.438,-24.414,0.000
1741723278.617,-1.465,-127.930,-39.062,-21.484,0.000
1741723278.621,-22.461,-90.820,-20.996,-23.926,0.000
1741723278.625,-38.574,45.898,-1.953,-25.391,0.000
1741723278.629,-22.949,81.055,-3.418,-8.789,0.000
1741723278.633,-4.395,31.250,-21.973,-2.441,0.000
1741723278.637,-20.508,-69.824,-41.992,-19.043,0.000
1741723278.641,-53.711,-130.859,-39.551,-42.480,0.000
1741723278.644,-49.805,-49.316,-29.297,-37.598,0.000
1741723278.648,-14.160,39.551,-29.785,-22.949,0.000
1741723278.652,4.883,64.941,-20.996,-25.879,0.000
1741723278.656,-19.043,-15.625,-12.207,-35.156,0.000
1741723278.660,-53.711,-97.168,-19.531,-44.922,0.000
1741723278.664,-26.855,0.977,-15.137,-25.391,0.000
1741723278.668,-8.301,-19.043,-21.973,-15.137,0.000
1741723278.672,-26.367,-68.359,-22.461,-17.578,0.000
1741723278.676,-42.969,47.363,-10.254,-22.461,0.000
1741723278.680,-27.344,66.895,0.000,-25.391,0.000
1741723278.684,4.883,-58.594,3.418,-8.789,0.000
1741723278.687,0.977,-33.691,8.301,0.488,0.000
1741723278.691,-28.809,-8.301,10.254,-8.789,0.000
1741723278.695,-32.227,-37.598,-4.883,-16.113,0.000
1741723278.699,2.930,-21.484,-1.465,-7.324,0.000
1741723278.703,17.578,33.203,11.230,6.836,0.000
1741723278.707,-18.555,6.836,3.418,-3.906,0.000
1741723278.711,-33.691,13.672,-8.301,-18.066,0.000
1741723278.715,-25.879,-26.367,-30.762,-22.461,0.000
1741723278.719,-11.230,-9.766,-31.738,-13.672,0.000
1741723278.723,-21.484,60.547,-17.090,-12.207,0.000
1741723278.727,-64.453,-103.516,-35.156,-39.062,0.000
1741723278.730,-35.156,-114.258,-27.832,-34.668,0.000
1741723278.734,25.391,71.777,-0.488,4.395,0.000
1741723278.738,-20.020,-10.742,-20.508,-14.160,0.000
1741723278.742,-65.430,-86.426,-22.461,-35.156,0.000
1741723278.746,-14.160,-3.906,7.812,-3.906,0.000
1741723278.750,17.578,71.777,12.695,-0.488,0.000
1741723278.754,-26.367,-0.488,-9.766,-30.762,0.000
1741723278.758,-81.543,-70.312,-24.414,-61.523,0.000
1741723278.762,-58.594,-27.344,-14.648,-51.270,0.000
1741723278.766,-33.691,82.520,-15.625,-41.992,0.000
1741723278.769,-63.965,71.289,-35.156,-55.664,0.000
1741723278.773,-103.516,-54.199,-36.133,-82.031,0.000
1741723278.777,-124.023,-125.977,-43.945,-111.328,0.000
1741723278.781,-100.098,-60.547,-39.062,-103.516,0.000
1741723278.785,-84.961,-35.156,-35.156,-96.680,0.000
1741723278.789,-100.586,-48.828,-56.152,-111.816,0.000
1741723278.793,-122.559,-52.734,-52.734,-126.465,0.000
1741723278.797,-102.539,-68.359,-46.875,-115.723,0.000
1741723278.801,-74.219,11.719,-43.945,-104.004,0.000
1741723278.805,-87.402,12.695,-45.898,-109.863,0.000
1741723278.809,-103.027,6.836,-43.945,-112.793,0.000
1741723278.812,-93.262,16.602,-49.805,-109.863,0.000
1741723278.816,-51.270,80.566,-41.504,-86.426,0.000
1741723278.820,-66.406,29.785,-38.086,-84.473,0.000
1741723278.824,-99.609,-139.648,-58.105,-93.262,0.000
1741723278.828,-83.496,-139.160,-65.430,-88.867,0.000
1741723278.832,-45.898,-8.301,-33.691,-71.289,0.000
1741723278.836,-24.414,47.363,-9.766,-50.293,0.000
1741723278.840,-48.340,-37.109,-27.344,-54.688,0.000
1741723278.844,-51.758,-73.730,-24.902,-54.199,0.000
1741723278.848,-4.883,22.461,-3.906,-25.879,0.000
1741723278.852,16.602,34.180,-1.465,-12.695,0.000
1741723278.855,-30.762,-45.410,-27.832,-34.668,0.000
1741723278.859,-63.965,3.418,-36.133,-52.734,0.000
1741723278.863,-31.738,62.500,-20.996,-40.527,0.000
1741723278.867,4.395,-5.859,-29.297,-16.602,0.000
1741723278.871,-8.301,-87.402,-33.203,-18.066,0.000
1741723278.875,-36.133,-31.738,-19.043,-31.250,0.000
1741723278.879,-28.320,-19.043,-11.719,-32.227,0.000
1741723278.883,8.301,-30.273,-8.301,-13.184,0.000
1741723278.887,7.324,10.254,-10.254,-3.906,0.000
1741723278.891,-35.156,-49.316,-20.996,-23.926,0.000
1741723278.895,-36.621,-87.891,-23.926,-25.879,0.000
1741723278.898,5.371,-24.414,-8.301,-8.301,0.000
1741723278.902,-4.883,12.695,-13.672,-9.277,0.000
1741723278.906,-31.250,23.926,-24.414,-18.555,0.000
1741723278.910,-35.156,-3.906,-21.973,-33.691,0.000
1741723278.914,-17.090,-39.062,-8.789,-27.344,0.000
1741723278.918,-0.977,-75.684,-19.043,-15.625,0.000
1741723278.922,-27.832,-94.238,-37.598,-26.367,0.000
1741723278.926,-34.180,-23.438,-25.879,-27.344,0.000
1741723278.930,-9.766,11.230,-18.066,-26.367,0.000
1741723278.934,9.766,44.922,-6.836,-17.090,0.000
1741723278.937,-4.395,-61.523,-4.395,-14.160,0.000
1741723278.941,-24.902,-61.035,-6.348,-16.602,0.000
1741723278.945,-17.578,22.461,-7.324,-16.113,0.000
1741723278.949,-19.531,-3.906,-17.578,-27.344,0.000
1741723278.953,-27.344,26.367,-27.832,-34.668,0.000
1741723278.957,-62.988,36.133,-31.250,-48.340,0.000
1741723278.961,-67.383,-18.555,-26.367,-47.363,0.000
1741723278.965,-47.363,-120.117,-45.410,-37.598,0.000
1741723278.969,-23.926,-18.555,-54.199,-26.855,0.000
1741723278.973,-29.297,31.250,-28.809,-20.508,0.000
1741723278.976,-52.734,-17.090,-8.789,-27.344,0.000
1741723278.980,-28.320,-7.324,-4.883,-24.414,0.000
1741723278.984,-6.348,-41.992,-19.043,-20.996,0.000
1741723278.988,-33.203,14.160,-27.344,-26.367,0.000
1741723278.992,-54.688,63.965,-17.090,-22.949,0.000
1741723278.996,-41.016,-66.406,-25.391,-24.414,0.000
1741723279.000,-6.836,-44.434,-24.414,-12.207,0.000
1741723279.004,-2.441,93.262,-9.277,3.906,0.000
1741723279.008,-38.574,-9.277,-18.066,-16.113,0.000
1741723279.012,-29.785,-142.578,-19.531,-17.090,0.000
1741723279.016,5.859,-54.688,-18.066,-0.488,0.000
1741723279.019,-8.301,19.531,-28.320,-8.789,0.000
1741723279.023,-66.895,-105.469,-47.852,-40.527,0.000
1741723279.027,-64.941,-74.707,-44.434,-42.480,0.000
1741723279.031,-12.695,34.668,-18.555,-16.602,0.000
1741723279.035,9.277,39.551,-9.277,-8.301,0.000
1741723279.039,-32.227,-41.016,-15.625,-28.320,0.000
1741723279.043,-75.195,-78.125,-23.438,-39.062,0.000
1741723279.047,-36.133,72.754,-13.184,-22.949,0.000
1741723279.051,8.301,68.848,-2.930,1.465,0.000
1741723279.055,-26.855,-89.355,-24.414,-15.625,0.000
1741723279.059,-67.383,-137.695,-41.992,-51.758,0.000
1741723279.062,-36.621,-38.086,-39.551,-39.551,0.000
1741723279.066,-4.883,9.766,-42.969,-32.227,0.000
1741723279.070,-10.254,-11.230,-38.086,-41.504,0.000
1741723279.074,-26.367,-64.941,-22.949,-42.480,0.000
1741723279.078,-43.945,-22.949,-22.949,-47.363,0.000
1741723279.082,-37.109,-4.883,-26.367,-30.273,0.000
1741723279.086,-25.391,-55.664,-21.484,-8.789,0.000
1741723279.090,-54.688,-62.012,-17.090,-20.020,0.000
1741723279.094,-72.754,-21.973,-21.484,-30.762,0.000
1741723279.098,-46.387,61.035,-30.762,-26.855,0.000
1741723279.102,-23.926,30.273,-28.320,-14.648,0.000
1741723279.105,-29.785,-72.266,-12.207,-9.277,0.000
1741723279.109,-63.965,-132.812,-32.715,-33.203,0.000
1741723279.113,-60.059,-15.137,-39.062,-49.805,0.000
1741723279.117,-37.598,-16.113,-29.785,-49.805,0.000
1741723279.121,-56.641,-107.422,-46.387,-55.176,0.000
1741723279.125,-66.406,-16.113,-32.227,-48.340,0.000
1741723279.129,-41.016,4.883,-6.836,-27.832,0.000
1741723279.133,-12.207,-36.621,-10.742,-10.254,0.000
1741723279.137,-29.785,-32.715,-21.973,-22.461,0.000
1741723279.141,-62.012,6.348,-25.879,-33.691,0.000
1741723279.145,-51.758,49.805,-25.391,-22.949,0.000
1741723279.148,-20.508,-4.883,-19.043,-15.625,0.000
1741723279.152,-12.695,-66.895,-15.137,-7.324,0.000
1741723279.156,-41.016,-12.695,-3.418,-17.578,0.000
1741723279.160,-53.223,1.953,6.348,-30.273,0.000
1741723279.164,-20.020,-36.133,-4.883,-23.926,0.000
1741723279.168,4.395,-23.926,-9.277,-7.812,0.000
1741723279.172,-11.719,-12.207,-16.113,-7.812,0.000
1741723279.176,-44.434,-41.992,-28.320,-25.879,0.000
1741723279.180,-38.086,-63.965,-33.203,-28.809,0.000
1741723279.184,0.977,0.488,-32.227,-15.137,0.000
1741723279.187,-1.953,28.320,-31.738,-4.395,0.000
1741723279.191,-35.156,36.133,-24.902,-9.277,0.000
1741723279.195,-41.016,-73.242,-32.715,-22.461,0.000
1741723279.199,0.977,-133.301,-35.645,-9.277,0.000
1741723279.203,20.508,-35.156,-0.977,4.395,0.000
1741723279.207,-15.625,12.207,16.602,-10.742,0.000
1741723279.211,-34.180,4.883,8.789,-19.043,0.000
1741723279.215,-11.719,-16.113,-5.859,-14.160,0.000
1741723279.219,4.883,-6.836,-9.766,-7.324,0.000
1741723279.223,-24.414,-55.176,-20.996,-24.414,0.000
1741723279.227,-60.547,-142.090,-38.574,-49.316,0.000
1741723279.230,-35.156,-47.363,-28.320,-33.203,0.000
1741723279.234,10.742,116.699,-7.812,-3.418,0.000
1741723279.238,-12.207,118.652,-9.277,-16.113,0.000
1741723279.242,-61.523,-35.645,-31.250,-43.945,0.000
1741723279.246,-47.852,-92.285,-36.133,-37.598,0.000
1741723279.250,1.465,37.598,-19.531,-13.672,0.000
1741723279.254,-3.906,10.254,-14.648,-12.207,0.000
1741723279.258,-26.367,-47.363,-9.766,-15.137,0.000
1741723279.262,-37.598,-48.828,-15.137,-30.273,0.000
1741723279.266,-18.066,-20.020,-11.719,-23.438,0.000
1741723279.270,-8.789,13.672,-19.043,-9.277,0.000
1741723279.273,-37.109,36.133,-26.367,-24.902,0.000
1741723279.277,-40.039,-27.832,-19.531,-31.250,0.000
1741723279.281,-13.672,-37.109,-31.738,-23.926,0.000
1741723279.285,-3.906,66.895,-34.668,-18.555,0.000
1741723279.289,-29.297,26.855,-20.508,-22.461,0.000
1741723279.293,-60.547,-130.859,-24.902,-43.945,0.000
1741723279.297,-29.785,-50.781,-31.738,-46.875,0.000
1741723279.301,24.902,55.664,-11.230,-12.207,0.000
1741723279.305,2.441,46.875,-10.254,1.465,0.000
1741723279.309,-46.875,-11.230,-27.344,-30.273,0.000
1741723279.312,-34.180,-86.426,-28.320,-43.945,0.000
1741723279.316,-14.648,-20.020,-34.180,-30.273,0.000
1741723279.320,-31.738,-4.883,-38.574,-28.320,0.000
1741723279.324,-57.617,-120.117,-34.668,-41.504,0.000
1741723279.328,-40.527,-28.809,-20.508,-35.645,0.000
1741723279.332,2.930,62.012,-8.301,-8.301,0.000
1741723279.336,-10.254,-85.938,-24.902,-17.090,0.000
1741723279.340,-52.734,-159.668,-36.621,-40.527,0.000
1741723279.344,-48.828,-52.246,-20.996,-29.785,0.000
1741723279.348,-8.301,-5.859,0.977,-16.113,0.000
1741723279.351,-4.395,13.184,-13.184,-23.438,0.000
1741723279.355,-24.902,-47.852,-24.902,-21.973,0.000
1741723279.359,-35.645,-116.699,-26.367,-15.625,0.000
1741723279.363,-23.438,-47.852,-26.855,-9.766,0.000
1741723279.367,-2.930,-28.809,-19.043,-10.742,0.000
1741723279.371,-13.184,-98.633,-17.578,-17.090,0.000
1741723279.375,-32.227,2.441,-13.184,-19.531,0.000
1741723279.379,-38.574,79.102,-22.949,-34.180,0.000
1741723279.383,-16.113,-16.113,-20.020,-26.367,0.000
1741723279.387,-14.648,-50.293,-3.906,-14.160,0.000
1741723279.391,-49.316,-63.965,-15.625,-31.250,0.000
1741723279.394,-60.547,-62.988,-25.879,-38.574,0.000
1741723279.398,-23.438,-0.488,-13.672,-19.043,0.000
1741723279.402,4.395,19.043,-7.812,-5.859,0.000
1741723279.406,-21.973,-45.410,-24.414,-20.020,0.000
1741723279.410,-36.621,-50.781,-18.555,-21.484,0.000
1741723279.414,-24.902,-8.789,-21.973,-20.996,0.000
1741723279.418,-10.254,45.410,-26.367,-21.973,0.000
1741723279.422,-19.531,-0.488,-13.672,-24.414,0.000
1741723279.426,-51.270,-25.879,-20.020,-32.227,0.000
1741723279.430,-48.828,-62.988,-22.461,-37.109,0.000
1741723279.434,-13.672,-126.953,-18.066,-26.367,0.000
1741723279.437,-20.508,-93.750,-20.020,-24.414,0.000
1741723279.441,-51.270,-10.742,-13.672,-37.109,0.000
1741723279.445,-36.621,21.484,-9.766,-36.133,0.000
1741723279.449,-0.977,-46.875,-9.766,-22.461,0.000
1741723279.453,16.602,-15.137,-2.441,-3.906,0.000
1741723279.457,-19.531,29.297,-10.742,-10.742,0.000
1741723279.461,-33.203,0.977,-3.418,-12.207,0.000
1741723279.465,-7.812,-9.766,-13.184,-5.859,0.000
1741723279.469,-5.859,20.996,-29.297,-8.789,0.000
1741723279.473,-23.926,37.109,-16.602,-18.066,0.000
1741723279.477,-38.086,-41.016,-16.602,-26.855,0.000
1741723279.480,-37.109,-128.906,-30.762,-29.785,0.000
1741723279.484,-2.441,-42.480,-25.391,-20.996,0.000
1741723279.488,-12.207,-26.367,-20.020,-22.949,0.000
1741723279.492,-60.059,-76.172,-36.133,-39.551,0.000
1741723279.496,-29.785,31.250,-23.926,-20.508,0.000
1741723279.500,21.484,56.152,5.371,12.207,0.000
1741723279.504,-22.949,-62.012,-22.949,-12.695,0.000
1741723279.508,-70.312,-43.457,-47.852,-40.527,0.000
1741723279.512,-40.039,54.688,-40.039,-24.902,0.000
1741723279.516,-12.695,52.246,-34.180,-15.625,0.000
1741723279.520,-14.160,110.352,-18.066,-15.625,0.000
1741723279.523,-47.363,-5.371,-11.719,-29.785,0.000
1741723279.527,-57.617,-164.551,-15.137,-34.180,0.000
1741723279.531,-20.020,-129.883,-20.508,-26.367,0.000
1741723279.535,15.137,-17.578,-30.273,-14.160,0.000
1741723279.539,-14.160,-46.875,-25.879,-12.207,0.000
1741723279.543,-55.664,-125.000,-21.973,-33.691,0.000
1741723279.547,-23.926,16.602,-9.766,-24.902,0.000
1741723279.551,9.766,7.324,-2.441,-4.395,0.000
1741723279.555,-19.043,5.859,-14.160,-16.602,0.000
1741723279.559,-61.035,16.113,-19.531,-38.086,0.000
1741723279.562,-73.242,-117.188,-41.992,-49.805,0.000
1741723279.566,-14.160,89.355,-20.996,-20.996,0.000
1741723279.570,2.441,64.941,-0.488,-15.137,0.000
1741723279.574,-55.176,-169.434,-25.879,-49.316,0.000
1741723279.578,-60.547,-88.379,-34.668,-53.711,0.000
1741723279.582,-21.973,-89.844,-45.898,-39.551,0.000
1741723279.586,2.930,21.484,-23.438,-14.648,0.000
1741723279.590,-12.695,76.172,1.465,-7.324,0.000
1741723279.594,-47.363,12.207,-18.066,-32.715,0.000
1741723279.598,-22.461,28.320,-15.137,-27.344,0.000
1741723279.602,0.977,-39.551,-10.742,-18.066,0.000
1741723279.605,-50.781,-72.754,-30.762,-48.340,0.000
1741723279.609,-71.777,-11.230,-31.250,-58.594,0.000
1741723279.613,-35.156,60.547,-14.160,-41.992,0.000
1741723279.617,3.418,74.707,-2.441,-26.367,0.000
1741723279.621,-15.625,-105.957,-16.602,-20.996,0.000
1741723279.625,-68.359,-174.316,-51.758,-48.828,0.000
1741723279.629,-56.152,-103.027,-58.594,-57.617,0.000
1741723279.633,1.465,38.086,-16.113,-21.484,0.000
1741723279.637,3.418,84.473,-2.441,-8.789,0.000
1741723279.641,-47.852,-20.996,-21.484,-33.691,0.000
1741723279.645,-46.875,-61.523,-34.180,-42.480,0.000
1741723279.648,7.324,-3.906,-23.438,-20.508,0.000
1741723279.652,18.555,-26.367,-17.578,-11.230,0.000
1741723279.656,-5.371,-43.457,-18.555,-18.066,0.000
1741723279.660,-25.879,34.668,-22.949,-30.762,0.000
1741723279.664,-5.859,36.133,-17.090,-19.531,0.000
1741723279.668,19.531,3.418,-9.277,-3.418,0.000
1741723279.672,-5.859,-42.969,-15.625,-20.508,0.000
1741723279.676,-37.109,-63.477,-9.766,-33.691,0.000
1741723279.680,-20.996,-45.898,-15.137,-30.762,0.000
1741723279.684,0.488,-42.969,-28.320,-32.715,0.000
1741723279.687,-18.066,9.277,-25.391,-26.855,0.000
1741723279.691,-53.223,-33.691,-18.066,-34.180,0.000
1741723279.695,-52.734,-62.500,-17.578,-41.016,0.000
1741723279.699,-7.812,31.738,-15.137,-17.578,0.000
1741723279.703,6.348,34.180,-10.742,-1.953,0.000
1741723279.707,-35.645,45.898,-21.973,-17.578,0.000
1741723279.711,-38.574,-21.484,-24.902,-19.043,0.000
1741723279.715,-1.465,-86.426,-14.160,-1.953,0.000
1741723279.719,13.184,0.977,-11.230,14.648,0.000
1741723279.723,-10.254,42.969,-11.230,14.648,0.000
1741723279.727,-42.969,-26.367,-21.484,-16.113,0.000
1741723279.730,-39.551,-117.188,-33.203,-32.227,0.000
1741723279.734,-9.766,-57.617,-29.785,-19.531,0.000
1741723279.738,-25.879,15.625,-30.273,-18.066,0.000
1741723279.742,-59.082,-32.227,-19.043,-30.762,0.000
1741723279.746,-30.273,10.742,5.859,-27.832,0.000
1741723279.750,10.742,10.254,-3.418,-15.625,0.000
1741723279.754,8.301,103.027,-1.953,-8.301,0.000
1741723279.758,-34.668,47.363,0.000,-25.391,0.000
1741723279.762,-55.664,-69.824,-23.438,-48.828,0.000
1741723279.766,-15.137,-12.695,-22.949,-28.809,0.000
1741723279.769,6.348,-7.812,-24.902,-11.719,0.000
1741723279.773,-30.762,-36.133,-27.832,-21.484,0.000
1741723279.777,-37.109,-85.449,-18.555,-22.461,0.000
1741723279.781,-17.090,-78.613,-18.555,-22.949,0.000
1741723279.785,-12.695,-18.555,-23.926,-29.785,0.000
1741723279.789,-35.156,-27.344,-25.879,-38.574,0.000
1741723279.793,-47.852,-17.578,-16.113,-35.645,0.000
1741723279.797,-9.277,44.434,-6.348,-14.648,0.000
1741723279.801,35.156,92.773,0.000,5.371,0.000
1741723279.805,15.625,-18.066,-6.348,8.301,0.000
1741723279.809,-34.668,-102.539,-33.691,-6.348,0.000
1741723279.812,-41.992,-17.578,-43.945,-23.438,0.000
1741723279.816,-9.766,7.812,-41.504,-20.996,0.000
1741723279.820,-11.719,-31.250,-38.574,-18.555,0.000
1741723279.824,-59.082,-60.547,-30.762,-39.551,0.000
1741723279.828,-56.152,-42.969,-13.184,-32.227,0.000
1741723279.832,-18.555,-34.668,-7.812,-13.184,0.000
1741723279.836,0.977,21.484,-13.672,-8.789,0.000
1741723279.840,-25.879,29.297,-10.254,-11.230,0.000
1741723279.844,-63.477,-58.105,-17.578,-43.945,0.000
1741723279.848,-30.762,-20.996,-14.648,-41.992,0.000
1741723279.852,-13.184,-17.578,-23.438,-26.367,0.000
1741723279.855,-39.062,-78.125,-33.203,-35.156,0.000
1741723279.859,-50.781,-99.609,-31.738,-36.621,0.000
1741723279.863,-34.668,-26.855,-37.109,-39.551,0.000
1741723279.867,-7.812,3.906,-21.484,-35.645,0.000
1741723279.871,-22.461,-27.832,-16.602,-34.668,0.000
1741723279.875,-52.246,62.500,-22.949,-44.434,0.000
1741723279.879,-42.480,1.465,-28.320,-43.457,0.000
1741723279.883,8.301,-41.992,-10.254,-25.879,0.000
1741723279.887,15.137,16.113,9.277,-20.020,0.000
1741723279.891,-21.973,-12.695,-3.418,-29.785,0.000
1741723279.895,-31.738,16.113,-19.531,-36.621,0.000
1741723279.898,-4.883,3.418,-15.137,-19.531,0.000
1741723279.902,8.301,-72.754,-10.254,-1.953,0.000
1741723279.906,-27.344,-82.031,-37.109,-15.137,0.000
1741723279.910,-56.641,-68.359,-38.574,-28.320,0.000
1741723279.914,-29.785,-48.340,-13.184,-19.043,0.000
1741723279.918,-3.418,-12.207,-9.277,-8.789,0.000
1741723279.922,-17.090,3.906,-6.348,-7.324,0.000
1741723279.926,-50.293,-52.734,-6.836,-19.531,0.000
1741723279.930,-26.855,6.348,3.418,-7.812,0.000
1741723279.934,3.418,0.000,2.930,-5.859,0.000
1741723279.938,-19.043,-33.203,-9.277,-27.832,0.000
1741723279.941,-39.551,58.594,-7.324,-39.062,0.000
1741723279.945,-28.320,-12.695,-8.301,-26.367,0.000
1741723279.949,-2.930,-14.160,-12.207,-9.766,0.000
1741723279.953,-2.441,-15.137,-15.137,-5.371,0.000
1741723279.957,-20.020,-62.988,-18.555,2.930,0.000
1741723279.961,-46.875,-31.250,-29.297,-13.184,0.000
1741723279.965,-27.344,-31.738,-7.324,-15.137,0.000
1741723279.969,0.000,-106.445,-1.953,-9.277,0.000
1741723279.973,0.000,-67.383,-26.367,-24.902,0.000
1741723279.977,0.000,5.371,-27.344,-30.762,0.000
1741723279.980,0.000,-35.645,-9.277,-17.090,0.000
1741723279.984,0.000,-29.297,1.465,-6.348,0.000
1741723279.988,0.000,96.191,1.465,-7.324,0.000
1741723279.992,0.000,-41.992,-7.324,-29.785,0.000
1741723279.996,0.000,-52.246,-20.996,-33.203,0.000
1741723280.000,0.000,49.316,-22.461,-12.207,0.000
1741723280.004,0.000,30.762,3.418,3.418,0.000
1741723280.008,0.000,83.496,-12.207,-25.879,0.000
1741723280.012,0.000,-63.477,-42.480,-54.199,0.000
1741723280.016,-5.371,-72.754,-29.785,-32.715,0.000
1741723280.020,1.465,-0.488,-28.320,-11.230,0.000
1741723280.023,-34.668,-29.297,-33.203,-30.273,0.000
1741723280.027,-55.176,-68.848,-32.715,-38.086,0.000
1741723280.031,-15.137,11.719,-12.207,-7.324,0.000
1741723280.035,13.672,73.242,23.926,11.230,0.000
1741723280.039,-27.832,-17.578,5.371,-9.766,0.000
1741723280.043,-69.336,-58.594,-26.855,-37.598,0.000
1741723280.047,-43.457,20.996,-15.137,-31.738,0.000
1741723280.051,0.000,65.918,10.742,-2.930,0.000
1741723280.055,-5.859,36.621,16.602,5.371,0.000
1741723280.059,-45.410,-40.039,-7.324,-22.949,0.000
1741723280.062,-28.320,-33.691,-21.484,-29.297,0.000
1741723280.066,19.531,15.625,-21.973,-6.836,0.000
1741723280.070,0.000,-31.250,-24.414,-6.836,0.000
1741723280.074,-47.852,-64.941,-20.020,-20.020,0.000
1741723280.078,-43.945,-22.949,-10.254,-19.531,0.000
1741723280.082,-1.465,79.102,-5.859,-6.836,0.000
1741723280.086,7.324,53.223,-3.418,4.395,0.000
1741723280.090,-24.902,-107.422,-9.277,-7.812,0.000
1741723280.094,-34.668,-121.582,-7.324,-12.695,0.000
1741723280.098,-17.090,-72.266,-8.301,-5.371,0.000
1741723280.102,22.949,-61.523,-10.254,23.438,0.000
1741723280.105,43.457,20.508,12.695,50.781,0.000
1741723280.109,9.766,-12.207,3.418,43.457,0.000
1741723280.113,8.789,-65.430,-9.766,42.480,0.000
1741723280.117,46.875,6.836,1.465,62.988,0.000
1741723280.121,36.621,18.066,5.371,71.777,0.000
1741723280.125,-6.348,-82.520,-1.465,54.199,0.000
1741723280.129,2.441,12.207,5.371,47.852,0.000
1741723280.133,49.805,45.898,22.461,74.707,0.000
1741723280.137,56.641,-13.672,28.320,82.031,0.000
1741723280.141,6.348,-37.598,4.395,50.781,0.000
1741723280.145,-13.184,-101.562,-11.719,31.250,0.000
1741723280.148,17.090,-35.156,-5.859,27.832,0.000
1741723280.152,33.203,3.906,2.930,44.434,0.000
1741723280.156,17.090,-10.742,14.648,42.969,0.000
1741723280.160,2.930,2.441,4.395,25.391,0.000
1741723280.164,28.809,18.066,-1.953,28.320,0.000
1741723280.168,45.410,11.719,-1.465,33.203,0.000
1741723280.172,13.184,-24.902,-9.277,14.648,0.000
1741723280.176,-17.578,37.109,-13.184,1.953,0.000
1741723280.180,11.230,94.238,3.418,21.973,0.000
1741723280.184,40.039,13.672,9.766,36.621,0.000
1741723280.187,15.625,-55.176,-9.277,20.020,0.000
1741723280.191,-10.254,-96.191,-6.348,5.371,0.000
1741723280.195,1.465,-2.441,15.137,12.695,0.000
1741723280.199,27.344,-0.488,16.113,20.508,0.000
1741723280.203,28.320,18.066,7.812,24.414,0.000
1741723280.207,-20.508,-52.246,-11.719,6.836,0.000
1741723280.211,-32.715,-86.426,-25.879,-4.883,0.000
1741723280.215,6.836,-37.109,-23.438,4.395,0.000
1741723280.219,27.344,23.926,-15.137,15.625,0.000
1741723280.223,11.719,140.137,3.906,16.113,0.000
1741723280.227,-39.062,-19.531,0.000,-13.672,0.000
1741723280.230,-40.527,-113.281,-9.277,-20.508,0.000
1741723280.234,-2.441,-11.230,-10.742,3.418,0.000
1741723280.238,-6.348,20.508,-13.184,6.836,0.000
1741723280.242,-33.691,5.859,-15.137,-10.254,0.000
1741723280.246,-29.297,-133.789,-17.578,-18.555,0.000
1741723280.250,0.000,-100.586,-20.020,-17.090,0.000
1741723280.254,0.000,88.379,-16.113,-8.789,0.000
1741723280.258,0.000,80.566,-0.977,-5.859,0.000
1741723280.262,0.000,-1.465,-7.812,-12.695,0.000
1741723280.266,0.000,-28.809,-20.996,-15.137,0.000
1741723280.270,0.000,-84.473,-24.414,-21.484,0.000
1741723280.273,0.000,-85.938,-27.832,-23.438,0.000
1741723280.277,0.000,-26.367,-30.762,-26.367,0.000
1741723280.281,0.000,-83.496,-23.438,-30.762,0.000
1741723280.285,0.000,-55.664,-17.578,-25.879,0.000
1741723280.289,0.000,13.672,-24.414,-30.762,0.000
1741723280.293,0.000,-55.176,-25.391,-30.273,0.000
1741723280.297,-44.922,-107.910,-31.250,-26.855,0.000
1741723280.301,-11.230,-3.418,-24.414,-7.812,0.000
1741723280.305,-27.832,-28.809,-23.438,-7.812,0.000
1741723280.309,-66.406,-131.348,-29.297,-35.156,0.000
1741723280.313,-35.156,-8.301,-13.184,-26.367,0.000
1741723280.316,10.742,99.609,-2.441,-1.953,0.000
1741723280.320,-7.812,15.625,-15.137,-9.766,0.000
1741723280.324,-38.086,-76.660,-17.090,-17.090,0.000
1741723280.328,-31.738,-103.027,-5.859,-7.812,0.000
1741723280.332,0.488,-41.016,-1.953,6.348,0.000
1741723280.336,11.719,57.129,-1.953,13.672,0.000
1741723280.340,-24.902,-16.602,-0.488,-2.441,0.000
1741723280.344,-42.969,-51.270,-0.977,-16.602,0.000
1741723280.348,-21.973,4.395,-4.395,-8.301,0.000
1741723280.352,6.348,-29.785,-5.371,3.418,0.000
1741723280.355,-4.395,-36.621,-10.742,-4.395,0.000
1741723280.359,-50.781,-64.941,-26.367,-33.203,0.000
1741723280.363,-32.715,56.641,-12.207,-26.367,0.000
1741723280.367,5.859,59.082,-13.184,2.441,0.000
1741723280.371,-12.207,-62.012,-26.367,-12.695,0.000
1741723280.375,-30.762,-63.965,-12.695,-14.648,0.000
1741723280.379,-6.348,-16.113,6.348,7.812,0.000
1741723280.383,5.371,12.695,-12.695,-10.742,0.000
1741723280.387,-15.625,-7.324,-42.480,-23.926,0.000
1741723280.391,-42.969,-27.344,-31.250,-33.203,0.000
1741723280.395,-45.898,-41.992,-24.902,-39.551,0.000
1741723280.398,-13.184,-18.555,-21.973,-16.602,0.000
1741723280.402,-4.883,31.738,-23.438,-15.625,0.000
1741723280.406,-46.875,-22.461,-38.086,-32.715,0.000
1741723280.410,-53.711,-15.625,-27.344,-29.785,0.000
1741723280.414,-22.461,5.859,-20.020,-21.973,0.000
1741723280.418,-10.254,-42.969,-44.922,-21.484,0.000
1741723280.422,-16.113,-38.086,-50.293,-22.461,0.000
1741723280.426,-22.949,-14.160,-21.484,-17.578,0.000
1741723280.430,-28.320,-26.855,-22.461,-15.625,0.000
1741723280.434,-14.160,-31.738,-41.992,-17.090,0.000
1741723280.438,-7.812,20.020,-29.297,-18.066,0.000
1741723280.441,-30.762,-10.254,-20.020,-20.020,0.000
1741723280.445,-32.227,-64.453,-21.484,-15.625,0.000
1741723280.449,6.348,-18.555,-17.090,2.441,0.000
1741723280.453,19.531,75.195,-16.113,8.789,0.000
1741723280.457,-19.531,86.914,-15.625,-8.301,0.000
1741723280.461,-34.668,23.926,-10.254,-12.695,0.000
1741723280.465,-8.301,-78.613,-15.137,-4.395,0.000
1741723280.469,26.367,-20.020,-10.254,6.348,0.000
1741723280.473,0.977,28.320,-6.836,-1.465,0.000
1741723280.477,-41.504,-32.715,-13.672,-22.949,0.000
1741723280.480,-12.695,33.691,-6.348,-20.508,0.000
1741723280.484,14.648,-9.277,-6.836,-3.906,0.000
1741723280.488,-7.324,-35.156,-14.648,-1.953,0.000
1741723280.492,-40.039,-13.184,-17.578,-17.578,0.000
1741723280.496,-25.391,-18.555,-13.184,-19.043,0.000
1741723280.500,12.207,41.992,-19.043,-8.789,0.000
1741723280.504,-7.812,86.426,-35.645,-13.672,0.000
1741723280.508,-38.574,-8.301,-17.090,-14.648,0.000
1741723280.512,-41.992,-99.121,-12.695,-25.879,0.000
1741723280.516,-22.949,47.363,-24.902,-38.086,0.000
1741723280.520,-2.441,29.785,-12.207,-18.555,0.000
1741723280.523,-19.043,-84.961,-21.484,-22.949,0.000
1741723280.527,-57.617,-104.980,-35.156,-42.969,0.000
1741723280.531,-33.691,-21.484,-22.461,-28.809,0.000
1741723280.535,-0.488,9.277,-18.555,-13.184,0.000
1741723280.539,-23.438,-51.758,-23.438,-17.578,0.000
1741723280.543,-51.758,-47.363,-30.762,-27.344,0.000
1741723280.547,-21.973,38.574,-30.273,-19.531,0.000
1741723280.551,28.809,83.008,-4.883,10.742,0.000
1741723280.555,8.301,-11.719,-3.906,1.953,0.000
1741723280.559,-64.453,-134.277,-35.645,-46.387,0.000
1741723280.563,-49.805,-16.602,-27.344,-40.527,0.000
1741723280.566,-11.719,-4.395,-24.902,-21.484,0.000
1741723280.570,-28.809,-0.488,-31.738,-29.297,0.000
1741723280.574,-52.246,16.113,-27.832,-33.691,0.000
1741723280.578,-54.688,-17.578,-30.273,-41.016,0.000
1741723280.582,-31.250,-4.395,-23.926,-34.180,0.000
1741723280.586,-16.113,-40.039,-29.297,-29.297,0.000
1741723280.590,-29.297,19.043,-23.926,-44.434,0.000
1741723280.594,-39.062,11.230,-17.090,-38.086,0.000
1741723280.598,-40.039,-76.660,-35.156,-31.738,0.000
1741723280.602,-12.695,-77.148,-34.668,-27.344,0.000
1741723280.606,-8.789,-21.484,-16.602,-16.602,0.000
1741723280.609,-37.109,-15.137,-16.113,-20.996,0.000
1741723280.613,-21.484,-21.973,-28.320,-24.414,0.000
1741723280.617,10.742,25.391,-42.969,-17.090,0.000
1741723280.621,6.348,-8.301,-40.039,-5.859,0.000
1741723280.625,-23.438,-8.789,-21.973,-18.066,0.000
1741723280.629,-22.949,58.594,-5.859,-29.785,0.000
1741723280.633,7.324,-18.555,3.906,-20.508,0.000
1741723280.637,12.695,-48.828,4.883,-7.812,0.000
1741723280.641,-10.742,44.434,0.000,4.395,0.000
1741723280.645,-5.371,75.195,-1.465,-5.371,0.000
1741723280.648,6.348,-28.809,-25.879,-15.625,0.000
1741723280.652,-7.812,-63.477,-38.086,-14.160,0.000
1741723280.656,-37.598,-37.109,-33.691,-25.391,0.000
1741723280.660,-59.570,-54.199,-40.039,-38.574,0.000
1741723280.664,-41.016,-16.602,-42.969,-41.016,0.000
1741723280.668,-3.906,47.852,-35.156,-27.344,0.000
1741723280.672,-26.855,-4.395,-27.832,-24.414,0.000
1741723280.676,-65.918,-88.379,-31.250,-35.645,0.000
1741723280.680,-46.875,-28.320,-47.852,-34.668,0.000
1741723280.684,-14.648,-27.344,-52.246,-27.344,0.000
1741723280.688,-6.836,-74.219,-22.949,-14.160,0.000
1741723280.691,-32.227,50.781,-4.883,-23.926,0.000
1741723280.695,-46.387,32.715,-14.160,-37.598,0.000
1741723280.699,-10.742,-59.570,-22.949,-22.949,0.000
1741723280.703,10.742,-7.324,-10.742,-10.254,0.000
1741723280.707,-38.086,-43.945,-14.648,-27.832,0.000
1741723280.711,-58.594,-50.781,-27.832,-41.504,0.000
1741723280.715,-24.902,-24.414,-20.020,-33.203,0.000
1741723280.719,-1.953,-5.859,-11.719,-13.184,0.000
1741723280.723,-34.668,26.855,-31.250,-29.785,0.000
1741723280.727,-73.730,-29.785,-46.387,-55.176,0.000
1741723280.731,-40.039,-41.992,-35.645,-37.598,0.000
1741723280.734,-10.742,-74.707,-34.668,-28.809,0.000
1741723280.738,-13.184,67.383,-20.020,-26.367,0.000
1741723280.742,-26.367,110.352,-2.441,-25.391,0.000
1741723280.746,-28.320,-77.148,-12.695,-28.809,0.000
1741723280.750,-6.836,-95.703,-19.531,-26.367,0.000
1741723280.754,-12.207,-29.785,-16.113,-25.879,0.000
1741723280.758,-52.246,-31.250,-20.996,-33.203,0.000
1741723280.762,-37.598,19.043,-17.090,-18.066,0.000
1741723280.766,-1.953,21.484,-20.996,-5.859,0.000
1741723280.770,-10.254,-56.152,-31.250,-20.020,0.000
1741723280.773,-38.574,-83.984,-37.109,-31.250,0.000
1741723280.777,-58.105,-5.371,-41.992,-37.109,0.000
1741723280.781,-28.809,56.152,-30.273,-26.855,0.000
1741723280.785,-1.953,79.590,-13.184,-17.090,0.000
1741723280.789,-24.414,-37.598,-9.766,-26.855,0.000
1741723280.793,-66.895,-91.309,-31.738,-51.270,0.000
1741723280.797,-41.992,-2.930,-28.809,-37.109,0.000
1741723280.801,5.859,-14.160,-9.766,-11.230,0.000
1741723280.805,-20.508,-58.105,-22.461,-20.996,0.000
1741723280.809,-62.500,-88.379,-27.832,-35.645,0.000
1741723280.813,-47.363,-63.965,-17.578,-24.414,0.000
1741723280.816,-8.789,41.992,-13.672,-14.648,0.000
1741723280.820,-22.461,-2.441,-22.461,-23.926,0.000
1741723280.824,-46.875,-46.875,-32.227,-27.344,0.000
1741723280.828,-38.086,-58.105,-30.273,-29.297,0.000
1741723280.832,-4.395,75.684,-8.301,-15.625,0.000
1741723280.836,4.395,51.758,5.371,0.000,0.000
1741723280.840,-35.645,-97.656,-10.742,-17.090,0.000
1741723280.844,-48.340,-26.855,-18.066,-26.855,0.000
1741723280.848,-17.090,20.508,0.000,-9.277,0.000
1741723280.852,8.789,49.805,9.277,-1.465,0.000
1741723280.855,-3.418,18.555,-9.277,-17.090,0.000
1741723280.859,-72.266,-106.445,-46.387,-58.594,0.000
1741723280.863,-68.848,-36.621,-33.203,-60.059,0.000
1741723280.867,-22.949,-4.883,-11.230,-32.715,0.000
1741723280.871,-31.738,-7.324,-17.090,-25.391,0.000
1741723280.875,-58.105,-7.812,-22.461,-32.227,0.000
1741723280.879,-44.434,-0.488,-21.484,-26.367,0.000
1741723280.883,17.090,7.812,-11.719,0.000,0.000
1741723280.887,11.719,-45.898,-15.137,4.883,0.000
1741723280.891,-33.691,-68.359,-22.949,-7.812,0.000
1741723280.895,-40.527,-14.160,-13.672,-18.555,0.000
1741723280.898,-13.184,51.758,-5.371,-10.742,0.000
1741723280.902,6.348,34.180,-5.371,-2.441,0.000
1741723280.906,-23.438,16.602,-11.719,-18.066,0.000
1741723280.910,-46.387,-9.766,-7.324,-28.320,0.000
1741723280.914,-26.855,-48.340,-7.812,-20.996,0.000
1741723280.918,-16.113,-57.129,-19.043,-22.461,0.000
1741723280.922,-48.340,-48.828,-28.320,-37.109,0.000
1741723280.926,-63.965,73.730,-23.926,-41.504,0.000
1741723280.930,-47.852,-16.602,-25.391,-31.738,0.000
1741723280.934,-4.395,-54.199,-10.742,-6.836,0.000
1741723280.938,-6.348,-16.602,-21.484,-12.695,0.000
1741723280.941,-52.734,-73.242,-43.945,-38.086,0.000
1741723280.945,-37.109,35.156,-19.043,-23.438,0.000
1741723280.949,5.859,88.867,-5.371,-6.836,0.000
1741723280.953,-9.277,-24.414,-17.090,-28.809,0.000
1741723280.957,-34.668,-8.789,-15.625,-33.203,0.000
1741723280.961,-35.645,13.184,-27.344,-31.250,0.000
1741723280.965,-9.277,-21.484,-33.691,-40.039,0.000
1741723280.969,1.953,-18.555,-25.879,-33.203,0.000
1741723280.973,-23.926,-10.254,-28.809,-38.086,0.000
1741723280.977,-41.992,-58.594,-39.062,-57.129,0.000
1741723280.981,-14.160,-34.668,-37.109,-44.922,0.000
1741723280.984,21.484,36.133,-21.973,-15.625,0.000
1741723280.988,4.883,2.930,-11.719,-5.371,0.000
1741723280.992,-23.438,-11.719,-9.766,-16.602,0.000
1741723280.996,-48.340,-51.270,-26.367,-38.086,0.000
1741723281.000,-32.227,-37.109,-29.297,-27.344,0.000
1741723281.004,-15.625,25.391,-11.230,-6.836,0.000
1741723281.008,-46.387,33.691,-7.324,-15.137,0.000
1741723281.012,-51.270,12.695,-15.625,-26.367,0.000
1741723281.016,-13.184,-24.902,-27.344,-30.762,0.000
1741723281.020,4.883,39.062,-12.207,-17.578,0.000
1741723281.024,-25.391,44.434,-11.230,-11.719,0.000
1741723281.027,-42.969,-65.430,-25.391,-22.949,0.000
1741723281.031,-24.414,-111.816,-11.230,-20.020,0.000
1741723281.035,4.395,-5.859,4.395,-6.836,0.000
1741723281.039,-20.020,-14.648,-9.766,-20.996,0.000
1741723281.043,-57.129,-93.262,-35.645,-41.992,0.000
1741723281.047,-32.715,-46.875,-32.715,-33.203,0.000
1741723281.051,-6.348,-85.938,-10.254,-14.648,0.000
1741723281.055,-21.484,-45.898,-4.395,-17.090,0.000
1741723281.059,-55.664,-2.441,-5.371,-28.809,0.000
1741723281.063,-42.969,-1.953,-6.836,-23.926,0.000
1741723281.066,2.441,125.000,-5.371,-10.742,0.000
1741723281.070,1.953,51.270,-9.766,-8.301,0.000
1741723281.074,-25.879,-61.035,-3.418,-12.695,0.000
1741723281.078,-37.598,-57.129,-2.930,-24.414,0.000
1741723281.082,-10.742,1.465,-12.695,-20.508,0.000
1741723281.086,3.906,-15.137,-8.789,-6.348,0.000
1741723281.090,-41.504,-32.715,-22.461,-28.809,0.000
1741723281.094,-67.383,-54.688,-41.992,-53.711,0.000
1741723281.098,-35.156,-77.148,-33.691,-40.527,0.000
1741723281.102,-19.043,7.324,-39.062,-34.180,0.000
1741723281.106,-46.387,-24.902,-51.758,-40.527,0.000
1741723281.109,-57.129,-41.992,-41.504,-39.551,0.000
1741723281.113,-20.020,83.984,-25.391,-27.344,0.000
1741723281.117,0.977,23.438,-36.133,-19.531,0.000
1741723281.121,-19.531,-83.008,-40.527,-19.043,0.000
1741723281.125,-45.410,-61.035,-29.297,-26.855,0.000
1741723281.129,-45.898,-38.086,-29.785,-34.668,0.000
1741723281.133,4.395,40.039,-18.555,-17.578,0.000
1741723281.137,19.531,86.426,-9.766,-1.953,0.000
1741723281.141,-29.785,-1.465,-36.133,-29.785,0.000
1741723281.145,-46.875,-78.125,-58.105,-45.898,0.000
1741723281.149,-16.113,-131.836,-41.016,-24.414,0.000
1741723281.152,7.812,4.883,-22.461,-1.953,0.000
1741723281.156,-11.719,64.453,-19.043,-5.371,0.000
1741723281.160,-21.973,66.406,-11.719,-6.348,0.000
1741723281.164,-11.719,-0.488,-20.020,-2.930,0.000
1741723281.168,8.789,-90.332,-27.344,-1.953,0.000
1741723281.172,-13.184,-63.477,-28.320,-23.438,0.000
1741723281.176,-41.504,-16.602,-26.367,-35.156,0.000
1741723281.180,-24.414,-82.031,-36.133,-30.273,0.000
1741723281.184,-9.277,-74.707,-37.109,-31.250,0.000
1741723281.188,-22.949,1.953,-21.484,-24.902,0.000
1741723281.191,-41.992,-30.762,-31.738,-31.738,0.000
1741723281.195,-31.738,20.020,-34.668,-34.668,0.000
1741723281.199,-1.465,-15.625,-18.066,-19.043,0.000
1741723281.203,10.742,-26.855,-20.020,-11.230,0.000
1741723281.207,-19.531,78.613,-18.555,-21.484,0.000
1741723281.211,-49.316,-34.668,-20.996,-32.715,0.000
1741723281.215,-27.344,-125.488,-22.461,-36.133,0.000
1741723281.219,5.371,-26.855,-18.066,-21.973,0.000
1741723281.223,-13.184,-24.902,-11.230,-18.555,0.000
1741723281.227,-41.016,-108.887,-1.953,-24.902,0.000
1741723281.230,-29.297,-70.801,-10.254,-26.855,0.000
1741723281.234,1.953,62.988,-10.254,-11.719,0.000
1741723281.238,11.230,80.566,1.953,7.812,0.000
1741723281.242,-33.203,-26.367,-16.602,-16.602,0.000
1741723281.246,-42.969,-80.078,-32.227,-36.133,0.000
1741723281.250,6.348,36.133,-3.418,-16.113,0.000
1741723281.254,7.812,83.984,9.277,-4.883,0.000
1741723281.258,-34.180,-26.367,2.930,-14.648,0.000
1741723281.262,-36.133,-58.594,-0.488,-15.625,0.000
1741723281.266,12.207,14.160,7.324,5.371,0.000
1741723281.270,14.160,-53.223,-4.883,8.789,0.000
1741723281.273,-40.527,-110.352,-30.762,-10.254,0.000
1741723281.277,-45.898,-50.781,-18.066,-15.137,0.000
1741723281.281,0.000,-50.781,-11.230,-13.672,0.000
1741723281.285,0.000,-13.184,-18.555,-5.371,0.000
1741723281.289,0.000,-23.438,-21.484,-12.207,0.000
1741723281.293,0.000,-91.797,-32.715,-43.457,0.000
1741723281.297,0.000,-31.250,-25.391,-40.527,0.000
1741723281.301,0.000,77.637,0.000,-4.883,0.000
1741723281.305,0.000,28.809,6.836,-2.441,0.000
1741723281.309,0.000,-130.859,-16.602,-31.250,0.000
1741723281.313,0.000,-111.816,-27.344,-34.668,0.000
1741723281.316,0.000,-29.297,-7.812,-8.789,0.000
1741723281.320,0.000,20.996,10.742,18.066,0.000
1741723281.324,0.000,28.320,-13.184,-10.254,0.000
1741723281.328,-61.523,-74.707,-32.227,-33.691,0.000
1741723281.332,-24.414,-46.387,-23.438,-18.555,0.000
1741723281.336,-5.371,5.371,-20.020,-17.578,0.000
1741723281.340,-45.898,-94.238,-32.715,-39.551,0.000
1741723281.344,-61.523,-52.246,-50.781,-48.828,0.000
1741723281.348,-25.391,65.430,-40.039,-31.738,0.000
1741723281.352,-3.418,50.781,-5.371,-10.742,0.000
1741723281.356,-29.785,-71.289,-4.395,-17.578,0.000
1741723281.359,-60.059,-101.074,-18.066,-32.227,0.000
1741723281.363,-33.203,26.855,-2.441,-20.508,0.000
1741723281.367,10.254,0.000,10.742,2.441,0.000
1741723281.371,-3.418,-26.367,3.906,1.953,0.000
1741723281.375,-51.270,-19.531,-18.555,-21.484,0.000
1741723281.379,-41.992,-12.207,-26.855,-23.926,0.000
1741723281.383,-19.531,-42.480,-33.691,-18.555,0.000
1741723281.387,-17.578,-30.273,-35.645,-15.137,0.000
1741723281.391,-40.527,-47.363,-27.344,-23.438,0.000
1741723281.395,-53.223,14.648,-24.902,-32.715,0.000
1741723281.399,-20.996,-24.902,-37.109,-18.555,0.000
1741723281.402,-5.371,-97.656,-35.645,-10.254,0.000
1741723281.406,-20.996,7.324,-12.207,-15.137,0.000
1741723281.410,-46.387,-25.879,-19.043,-25.391,0.000
1741723281.414,-18.555,-28.320,-12.207,-11.719,0.000
1741723281.418,15.137,99.121,4.883,-2.930,0.000
1741723281.422,-29.297,6.348,-19.531,-22.949,0.000
1741723281.426,-66.406,-79.590,-39.062,-33.691,0.000
1741723281.430,-29.297,36.621,-8.789,-10.742,0.000
1741723281.434,6.836,82.520,14.160,10.742,0.000
1741723281.438,-16.113,-9.766,-17.090,-6.836,0.000
1741723281.441,-50.781,-53.711,-35.645,-27.832,0.000
1741723281.445,-47.363,-49.316,-25.391,-22.461,0.000
1741723281.449,-2.441,-32.715,-24.902,-3.906,0.000
1741723281.453,15.625,-37.598,-33.691,4.395,0.000
1741723281.457,-20.508,-75.684,-23.926,-17.090,0.000
1741723281.461,-45.410,-4.883,-14.160,-37.598,0.000
1741723281.465,-26.367,21.973,-16.602,-35.645,0.000
1741723281.469,4.395,-47.852,-19.531,-15.137,0.000
1741723281.473,-12.207,-9.766,-8.301,-8.789,0.000
1741723281.477,-39.551,46.875,-0.488,-16.113,0.000
1741723281.481,-25.391,-1.465,-8.301,-13.672,0.000
1741723281.484,-6.348,-22.461,-23.926,-11.230,0.000
1741723281.488,2.930,94.727,-17.090,-4.883,0.000
1741723281.492,-23.926,40.527,-20.020,-17.578,0.000
1741723281.496,-40.527,-75.684,-43.945,-34.668,0.000
1741723281.500,-9.766,1.953,-37.109,-16.113,0.000
1741723281.504,-9.766,-22.949,-22.461,-4.883,0.000
1741723281.508,-55.176,-61.523,-37.598,-30.762,0.000
1741723281.512,-57.129,26.367,-23.926,-37.598,0.000
1741723281.516,-17.090,40.039,-1.953,-20.996,0.000
1741723281.520,-5.859,-5.371,-6.836,-12.695,0.000
1741723281.524,-36.133,-35.156,-13.672,-13.184,0.000
1741723281.527,-52.734,-63.965,-22.949,-22.461,0.000
1741723281.531,-11.230,62.500,-22.949,-20.508,0.000
1741723281.535,10.742,105.469,-8.301,-13.184,0.000
1741723281.539,-19.043,-81.055,-19.531,-10.254,0.000
1741723281.543,-32.227,-71.289,-17.578,-19.043,0.000
1741723281.547,-28.809,16.602,-12.207,-26.367,0.000
1741723281.551,-8.789,52.246,-15.137,-14.648,0.000
1741723281.555,-8.789,-14.160,-7.812,-12.695,0.000
1741723281.559,-21.973,-70.801,0.977,-9.277,0.000
1741723281.563,-39.062,-101.562,-15.137,-13.184,0.000
1741723281.566,-17.090,41.992,-22.461,-11.719,0.000
1741723281.570,-7.324,85.449,-16.602,-11.719,0.000
1741723281.574,-52.734,-32.715,-27.344,-27.832,0.000
1741723281.578,-65.430,-45.898,-28.809,-37.598,0.000
1741723281.582,-26.367,45.410,-17.090,-33.691,0.000
1741723281.586,-11.719,-4.395,-13.672,-20.508,0.000
1741723281.590,-42.969,-59.082,-34.668,-30.762,0.000
1741723281.594,-58.594,-107.910,-40.039,-42.480,0.000
1741723281.598,-28.809,-78.613,-10.742,-33.203,0.000
1741723281.602,0.000,-27.832,-0.977,-15.625,0.000
1741723281.606,-33.203,-57.617,-23.926,-29.785,0.000
1741723281.609,-51.270,-37.109,-20.020,-31.738,0.000
1741723281.613,-26.855,-50.781,-8.789,-13.672,0.000
1741723281.617,-13.672,12.207,-22.461,-21.484,0.000
1741723281.621,-29.297,43.945,-18.555,-23.926,0.000
1741723281.625,-72.266,-54.199,-33.691,-36.133,0.000
1741723281.629,-47.852,65.918,-29.297,-24.902,0.000
1741723281.633,-4.883,68.359,-14.160,-4.883,0.000
1741723281.637,-23.438,-97.656,-30.762,-11.719,0.000
1741723281.641,-47.852,-136.719,-39.551,-28.809,0.000
1741723281.645,-31.738,15.137,-17.578,-17.090,0.000
1741723281.649,-4.395,39.062,-13.672,2.930,0.000
1741723281.652,11.230,-33.203,-21.484,1.465,0.000
1741723281.656,-27.344,-49.805,-21.973,-23.926,0.000
1741723281.660,-64.453,-43.457,-32.227,-41.504,0.000
1741723281.664,-27.344,13.184,-30.762,-26.855,0.000
1741723281.668,4.883,19.043,-21.484,-2.930,0.000
1741723281.672,-21.973,-52.734,-30.273,-7.324,0.000
1741723281.676,-48.340,-21.973,-20.020,-18.555,0.000
1741723281.680,-44.434,-33.203,-14.648,-20.508,0.000
1741723281.684,-15.625,-88.379,-22.461,-13.672,0.000
1741723281.688,-12.207,-66.895,-24.414,-12.207,0.000
1741723281.691,-54.688,-25.879,-35.645,-31.250,0.000
1741723281.695,-55.664,-54.199,-33.691,-37.109,0.000
1741723281.699,2.441,-21.484,-6.836,-10.254,0.000
1741723281.703,-0.488,46.875,-5.859,-14.648,0.000
1741723281.707,-46.875,9.277,-25.879,-37.598,0.000
1741723281.711,-53.711,-61.523,-33.691,-32.715,0.000
1741723281.715,-27.832,-15.137,-26.855,-20.996,0.000
1741723281.719,-14.648,17.090,-23.438,-22.949,0.000
1741723281.723,-32.227,-3.906,-23.926,-29.297,0.000
1741723281.727,-65.918,-68.359,-45.410,-50.781,0.000
1741723281.731,-47.852,-37.598,-43.457,-48.828,0.000
1741723281.734,-5.859,-5.371,-20.996,-15.625,0.000
1741723281.738,-10.742,6.836,-16.602,-9.277,0.000
1741723281.742,-30.762,46.875,-22.949,-13.184,0.000
1741723281.746,-39.551,-3.418,-42.969,-27.832,0.000
1741723281.750,-1.953,-48.828,-41.992,-26.367,0.000
1741723281.754,19.043,12.207,-14.160,-5.859,0.000
1741723281.758,-31.738,44.922,-17.578,-19.043,0.000
1741723281.762,-54.688,-106.445,-38.086,-40.039,0.000
1741723281.766,-17.578,-63.965,-40.039,-20.508,0.000
1741723281.770,0.488,76.172,-36.621,-10.254,0.000
1741723281.774,-41.504,-104.492,-42.480,-29.785,0.000
1741723281.777,-60.547,-159.180,-38.086,-38.574,0.000
1741723281.781,-27.832,-30.273,-21.973,-27.832,0.000
1741723281.785,12.207,77.637,-0.977,0.000,0.000
1741723281.789,10.742,58.594,10.742,3.418,0.000
1741723281.793,-46.875,-46.875,-19.531,-35.156,0.000
1741723281.797,-51.758,-7.812,-46.875,-50.781,0.000
1741723281.801,-5.859,21.973,-32.227,-22.949,0.000
1741723281.805,-14.648,-7.324,-22.949,-19.043,0.000
1741723281.809,-58.594,-28.809,-40.039,-37.598,0.000
1741723281.813,-46.387,2.441,-37.109,-36.133,0.000
1741723281.817,-7.812,40.039,-7.324,-10.254,0.000
1741723281.820,-10.254,0.977,-5.371,0.000,0.000
1741723281.824,-48.828,-109.863,-15.137,-22.949,0.000
1741723281.828,-68.848,-88.379,-16.113,-35.156,0.000
1741723281.832,-15.625,39.062,-17.090,-12.207,0.000
1741723281.836,2.930,20.020,-13.184,-3.906,0.000
1741723281.840,-24.414,-13.672,-7.324,-9.766,0.000
1741723281.844,-41.992,-46.875,-23.438,-27.832,0.000
1741723281.848,-29.297,-13.184,-26.855,-33.203,0.000
1741723281.852,-2.441,20.508,-17.578,-19.531,0.000
1741723281.856,-18.066,-20.996,-21.973,-20.996,0.000
1741723281.859,-43.945,-43.945,-20.996,-30.273,0.000
1741723281.863,-13.672,66.895,-16.113,-30.273,0.000
1741723281.867,5.371,18.555,-20.020,-17.578,0.000
1741723281.871,-20.996,-78.125,-23.438,-14.160,0.000
1741723281.875,-45.410,-102.051,-16.113,-16.602,0.000
1741723281.879,-32.227,-18.555,-0.977,-8.301,0.000
1741723281.883,-4.395,57.617,-5.371,-1.953,0.000
1741723281.887,15.625,39.062,4.883,19.043,0.000
1741723281.891,-41.504,-27.344,-4.395,-20.996,0.000
1741723281.895,-106.445,-43.457,-25.391,-81.543,0.000
1741723281.899,-69.824,-17.578,-19.531,-69.824,0.000
1741723281.902,-41.504,-25.391,-26.367,-61.523,0.000
1741723281.906,-88.867,-67.383,-27.832,-86.914,0.000
1741723281.910,-103.027,-22.949,-9.277,-93.750,0.000
1741723281.914,-80.078,6.348,-26.367,-104.492,0.000
1741723281.918,-59.082,-21.484,-24.902,-99.609,0.000
1741723281.922,-91.309,-19.043,-15.625,-99.609,0.000
1741723281.926,-143.066,44.434,-39.551,-129.395,0.000
1741723281.930,-126.465,33.203,-48.828,-117.188,0.000
1741723281.934,-92.773,-65.918,-41.016,-98.633,0.000
1741723281.938,-90.820,-64.941,-28.320,-91.797,0.000
1741723281.942,-130.859,-69.824,-39.062,-102.051,0.000
1741723281.945,-135.742,-1.465,-64.941,-120.117,0.000
1741723281.949,-75.195,-1.465,-53.223,-91.309,0.000
1741723281.953,-55.176,-6.836,-22.461,-61.035,0.000
1741723281.957,-79.102,62.012,-15.625,-64.941,0.000
1741723281.961,-81.055,-30.273,-27.344,-68.359,0.000
1741723281.965,-45.410,-81.055,-36.621,-50.781,0.000
1741723281.969,-9.766,-12.695,-24.902,-21.484,0.000
1741723281.973,-29.297,51.270,-16.602,-22.461,0.000
1741723281.977,-71.289,0.000,-36.133,-47.852,0.000
1741723281.981,-57.617,-98.145,-45.410,-48.340,0.000
1741723281.984,-24.902,23.926,-37.598,-35.156,0.000
1741723281.988,-45.410,-28.320,-37.598,-35.645,0.000
1741723281.992,-65.430,-100.586,-34.668,-42.969,0.000
1741723281.996,-43.945,-23.438,-29.297,-41.016,0.000
1741723282.000,2.441,28.809,-8.301,-23.438,0.000
1741723282.004,8.789,44.434,2.930,-24.414,0.000
1741723282.008,-42.480,-38.086,-12.207,-34.668,0.000
1741723282.012,-49.316,-94.238,-8.301,-28.320,0.000
1741723282.016,-1.953,-87.402,8.301,-9.277,0.000
1741723282.020,1.953,-40.039,-9.277,-9.766,0.000
1741723282.024,-38.086,-57.129,-32.227,-30.273,0.000
1741723282.027,-50.293,-40.039,-35.156,-31.250,0.000
1741723282.031,-17.090,58.594,-36.621,-20.508,0.000
1741723282.035,18.555,71.777,-16.602,0.000,0.000
1741723282.039,10.742,40.527,-3.418,14.160,0.000
1741723282.043,-47.852,-107.910,-33.691,-24.902,0.000
1741723282.047,-33.691,-42.969,-22.949,-28.809,0.000
1741723282.051,16.602,81.543,1.465,0.488,0.000
1741723282.055,-3.418,11.719,-3.418,0.488,0.000
1741723282.059,-45.898,-71.777,-11.719,-21.484,0.000
1741723282.063,-22.949,-16.602,-3.418,-15.137,0.000
1741723282.066,18.066,39.551,6.836,1.465,0.000
1741723282.070,-5.859,-81.543,-10.254,-16.113,0.000
1741723282.074,-38.574,-98.145,-14.648,-20.508,0.000
1741723282.078,-20.508,23.438,-8.301,-14.160,0.000
1741723282.082,23.926,45.410,-6.836,-0.488,0.000
1741723282.086,30.762,5.859,-3.906,7.812,0.000
1741723282.090,-31.738,-78.613,-18.066,-21.484,0.000
1741723282.094,-57.129,-56.641,-26.855,-39.551,0.000
1741723282.098,4.883,124.023,4.395,-0.977,0.000
1741723282.102,32.715,133.789,13.672,18.066,0.000
1741723282.106,-24.414,-114.746,-18.555,-20.508,0.000
1741723282.109,-77.148,-148.926,-34.180,-45.410,0.000
1741723282.113,-60.059,-36.133,-33.691,-41.992,0.000
1741723282.117,-15.625,-28.320,-16.602,-28.809,0.000
1741723282.121,-23.438,-105.957,-11.719,-26.855,0.000
1741723282.125,-48.828,-42.969,-23.438,-35.645,0.000
1741723282.129,-35.156,5.859,-24.902,-37.109,0.000
1741723282.133,2.441,44.922,-10.254,-25.879,0.000
1741723282.137,9.277,71.777,-6.836,-23.438,0.000
1741723282.141,-21.973,14.648,-12.695,-34.668,0.000
1741723282.145,-33.691,10.742,-11.719,-36.621,0.000
1741723282.149,-7.324,-10.254,-11.230,-24.902,0.000
1741723282.152,15.625,21.973,-5.859,-14.160,0.000
1741723282.156,-23.438,-54.688,-26.367,-38.574,0.000
1741723282.160,-62.988,-137.695,-41.504,-54.688,0.000
1741723282.164,-19.531,-21.484,-13.184,-31.250,0.000
1741723282.168,22.949,24.902,-5.859,-10.742,0.000
1741723282.172,0.488,-47.363,-20.996,-11.719,0.000
1741723282.176,-36.621,-125.977,-27.832,-27.344,0.000
1741723282.180,-34.180,-90.820,-39.062,-34.180,0.000
1741723282.184,5.859,61.523,-20.996,-6.836,0.000
1741723282.188,8.789,9.766,-11.719,3.418,0.000
1741723282.192,-17.090,27.344,-7.324,-1.465,0.000
1741723282.195,-21.484,7.324,-13.184,-5.859,0.000
1741723282.199,6.836,-118.652,-39.062,0.000,0.000
1741723282.203,28.809,-59.082,-35.156,20.996,0.000
1741723282.207,14.648,-16.602,-18.066,20.996,0.000
1741723282.211,-2.930,-29.785,-10.742,9.766,0.000
1741723282.215,-3.906,-72.266,-20.020,0.488,0.000
1741723282.219,0.000,-38.086,-17.578,19.043,0.000
1741723282.223,0.000,-3.418,-2.930,33.691,0.000
1741723282.227,0.000,-24.902,-4.395,11.719,0.000
1741723282.231,0.000,6.348,-3.906,17.090,0.000
1741723282.234,0.000,52.246,-4.395,37.109,0.000
1741723282.238,0.000,105.469,0.488,21.973,0.000
1741723282.242,0.000,19.043,-0.488,10.742,0.000
1741723282.246,0.000,-154.785,-23.926,6.836,0.000
1741723282.250,0.000,-69.824,-21.973,9.277,0.000
1741723282.254,0.000,54.688,-7.812,23.438,0.000
1741723282.258,0.000,-75.684,-21.973,9.277,0.000
1741723282.262,0.000,-69.336,-32.227,-3.418,0.000
1741723282.266,20.996,86.426,-23.438,6.836,0.000
1741723282.270,14.160,-45.410,-29.297,10.742,0.000
1741723282.274,-2.930,-39.062,-20.996,7.324,0.000
1741723282.277,-13.672,66.406,-6.836,4.395,0.000
1741723282.281,7.324,7.324,-1.953,20.508,0.000
1741723282.285,22.461,55.176,-2.930,20.996,0.000
1741723282.289,0.488,-4.395,-8.301,8.301,0.000
1741723282.293,-29.297,-123.047,-26.367,-10.254,0.000
1741723282.297,-29.785,-73.730,-35.645,-20.508,0.000
1741723282.301,-2.441,-8.789,-22.461,-3.906,0.000
1741723282.305,5.371,30.273,-7.812,8.301,0.000
1741723282.309,-12.207,24.902,-4.883,3.418,0.000
1741723282.313,-17.090,0.000,-16.113,-0.488,0.000
1741723282.317,12.207,-35.156,-35.156,2.930,0.000
1741723282.320,17.090,-42.969,-31.738,3.906,0.000
1741723282.324,-15.625,2.930,-9.277,7.812,0.000
1741723282.328,-8.789,5.859,0.977,8.789,0.000
1741723282.332,28.320,107.422,18.066,20.996,0.000
1741723282.336,21.973,8.301,8.789,18.555,0.000
1741723282.340,-20.996,-116.699,-15.625,-4.395,0.000
1741723282.344,-50.293,-58.594,-23.926,-14.648,0.000
1741723282.348,-21.484,-58.105,-14.648,-6.348,0.000
1741723282.352,20.020,0.488,2.441,11.230,0.000
1741723282.356,-9.277,35.156,-6.348,2.930,0.000
1741723282.360,-56.152,-16.602,-24.414,-21.973,0.000
1741723282.363,-41.016,-1.953,-20.996,-28.320,0.000
1741723282.367,3.418,-33.691,-20.996,-4.395,0.000
1741723282.371,11.719,-0.488,-26.367,13.672,0.000
1741723282.375,-12.207,-8.789,-15.137,4.395,0.000
1741723282.379,-28.320,48.340,-13.184,-7.324,0.000
1741723282.383,-9.766,127.441,-16.602,0.488,0.000
1741723282.387,-5.371,10.742,-20.996,2.441,0.000
1741723282.391,-45.898,-77.637,-30.273,-13.184,0.000
1741723282.395,-53.223,-80.078,-24.414,-14.648,0.000
1741723282.399,-6.836,-23.926,-14.160,-0.977,0.000
1741723282.402,5.859,14.648,-12.695,1.465,0.000
1741723282.406,-19.531,-64.453,-16.602,-5.371,0.000
1741723282.410,-30.762,-103.516,-15.625,-13.184,0.000
1741723282.414,-8.789,21.484,-1.953,-0.488,0.000
1741723282.418,1.465,59.570,-4.883,10.254,0.000
1741723282.422,-12.695,25.879,-3.418,6.836,0.000
1741723282.426,-38.574,30.762,1.953,-1.953,0.000
1741723282.430,-45.898,-64.453,-10.254,-18.555,0.000
1741723282.434,-3.906,-26.855,-8.301,-10.742,0.000
1741723282.438,-11.719,-22.949,-22.949,-14.160,0.000
1741723282.442,-62.500,-72.266,-41.504,-43.945,0.000
1741723282.445,-42.480,-7.324,-26.855,-31.738,0.000
1741723282.449,-3.906,-20.996,-13.672,-7.324,0.000
1741723282.453,-0.977,1.465,-1.953,-2.441,0.000
1741723282.457,-22.461,-1.465,-9.766,-20.020,0.000
1741723282.461,-42.480,-40.039,-24.902,-41.504,0.000
1741723282.465,-14.648,-14.648,-7.324,-20.996,0.000
1741723282.469,14.648,-2.441,7.812,5.371,0.000
1741723282.473,4.883,50.293,-0.977,-2.441,0.000
1741723282.477,-25.391,41.504,-13.672,-26.855,0.000
1741723282.481,-15.625,8.789,-21.484,-32.227,0.000
1741723282.485,-15.625,-39.062,-59.570,-42.969,0.000
1741723282.488,-32.227,-27.344,-67.383,-47.363,0.000
1741723282.492,-42.969,34.180,-58.594,-50.293,0.000
1741723282.496,-27.344,-47.363,-59.082,-57.617,0.000
1741723282.500,24.902,-41.992,-38.086,-33.691,0.000
1741723282.504,11.719,-81.055,-53.711,-36.133,0.000
1741723282.508,-22.949,-33.203,-62.012,-53.223,0.000
1741723282.512,-26.367,47.363,-44.922,-48.828,0.000
1741723282.516,-1.953,11.719,-45.898,-39.062,0.000
1741723282.520,16.602,109.863,-52.734,-39.062,0.000
1741723282.524,-28.320,-5.371,-64.453,-62.988,0.000
1741723282.527,-41.016,-17.578,-68.359,-78.613,0.000
1741723282.531,7.324,72.754,-63.965,-55.176,0.000
1741723282.535,51.758,73.730,-51.758,-19.531,0.000
1741723282.539,1.953,13.184,-69.824,-47.852,0.000
1741723282.543,-47.363,-60.059,-76.172,-67.383,0.000
1741723282.547,-9.277,18.555,-59.082,-45.898,0.000
1741723282.551,18.555,9.277,-72.266,-41.016,0.000
1741723282.555,20.020,5.371,-58.105,-36.133,0.000
1741723282.559,-1.953,47.363,-45.898,-46.387,0.000
1741723282.563,-18.066,-23.438,-57.129,-55.176,0.000
1741723282.567,20.508,68.359,-53.223,-29.785,0.000
1741723282.570,27.344,75.684,-39.551,-22.461,0.000
1741723282.574,5.371,-62.988,-31.250,-25.879,0.000
1741723282.578,10.254,-28.809,-39.062,-19.043,0.000
1741723282.582,21.484,-4.883,-49.316,-24.414,0.000
1741723282.586,30.762,38.574,-47.852,-28.320,0.000
1741723282.590,19.531,54.688,-40.039,-17.090,0.000
1741723282.594,-0.977,12.695,-37.109,-16.113,0.000
1741723282.598,19.043,1.953,-48.828,-18.555,0.000
1741723282.602,22.461,-10.254,-65.430,-11.719,0.000
1741723282.606,-13.184,1.953,-47.852,-18.555,0.000
1741723282.610,-36.133,-51.758,-28.320,-27.832,0.000
1741723282.613,-1.953,90.332,-5.859,-3.418,0.000
1741723282.617,30.273,101.562,0.488,17.090,0.000
1741723282.621,2.441,-64.941,-19.531,5.859,0.000
1741723282.625,-37.598,-67.383,-30.762,-19.043,0.000
1741723282.629,-31.250,-101.562,-27.832,-20.508,0.000
1741723282.633,16.602,-1.953,-12.207,3.906,0.000
1741723282.637,0.000,7.324,-22.949,-4.883,0.000
1741723282.641,-37.109,-1.953,-34.180,-24.902,0.000
1741723282.645,-34.668,18.555,-31.738,-20.996,0.000
1741723282.649,0.977,-19.043,-34.668,-10.254,0.000
1741723282.652,26.367,18.555,-22.949,-0.977,0.000
1741723282.656,5.371,-8.301,-19.043,-8.301,0.000
1741723282.660,-44.434,0.000,-40.039,-24.902,0.000
1741723282.664,-42.969,7.324,-39.062,-25.391,0.000
1741723282.668,3.906,-100.586,-24.902,-10.254,0.000
1741723282.672,17.090,-55.664,-12.695,-1.465,0.000
1741723282.676,-37.598,-28.320,-22.461,-25.879,0.000
1741723282.680,-46.875,-10.254,-31.250,-27.344,0.000
1741723282.684,-15.137,-42.969,-33.691,-15.625,0.000
1741723282.688,-20.020,-35.645,-35.156,-8.789,0.000
1741723282.692,-49.805,-12.695,-34.668,-9.277,0.000
1741723282.695,-52.246,-126.953,-41.016,-20.020,0.000
1741723282.699,-1.465,-43.457,-29.785,-8.301,0.000
1741723282.703,10.742,10.254,-20.508,-6.836,0.000
1741723282.707,0.977,37.598,-9.766,-18.066,0.000
1741723282.711,-23.926,-7.324,-20.996,-32.715,0.000
1741723282.715,-28.809,-52.246,-33.691,-26.855,0.000
1741723282.719,-6.836,44.434,-12.695,-15.137,0.000
1741723282.723,-24.414,-39.551,-0.488,-16.113,0.000
1741723282.727,-48.828,-46.387,-11.719,-31.738,0.000
1741723282.731,-24.902,8.789,-8.301,-23.438,0.000
1741723282.735,20.508,-47.363,-2.441,11.230,0.000
1741723282.738,-16.113,-91.797,-35.156,-11.719,0.000
1741723282.742,-54.688,-27.832,-26.367,-37.598,0.000
1741723282.746,-31.738,-13.672,-1.953,-18.066,0.000
1741723282.750,15.137,36.621,0.977,7.324,0.000
1741723282.754,5.371,98.145,-2.441,-1.465,0.000
1741723282.758,-53.223,-39.551,-16.602,-29.297,0.000
1741723282.762,-50.293,-140.625,-26.855,-34.668,0.000
1741723282.766,-4.395,-66.406,-27.832,-18.555,0.000
1741723282.770,15.137,9.277,-21.484,-6.348,0.000
1741723282.774,-18.066,-46.387,-24.414,-14.160,0.000
1741723282.777,-46.875,-11.230,-39.062,-29.297,0.000
1741723282.781,0.488,38.574,-33.203,-6.836,0.000
1741723282.785,47.363,21.973,-17.090,16.602,0.000
1741723282.789,24.902,-26.367,-10.254,18.066,0.000
1741723282.793,-29.785,-83.008,-28.320,-12.207,0.000
1741723282.797,-27.344,-22.949,-22.949,-24.414,0.000
1741723282.801,21.973,154.785,10.742,1.953,0.000
1741723282.805,2.930,9.277,-0.488,-0.977,0.000
1741723282.809,-48.340,-113.281,-17.090,-13.672,0.000
1741723282.813,-39.551,-45.898,-18.555,-11.719,0.000
1741723282.817,8.789,-12.695,-17.578,9.277,0.000
1741723282.820,8.301,41.504,-18.555,1.465,0.000
1741723282.824,-37.109,-29.785,-30.273,-28.320,0.000
1741723282.828,-35.645,-9.766,-23.926,-21.484,0.000
1741723282.832,9.277,71.289,-13.184,2.930,0.000
1741723282.836,12.207,-54.688,-20.508,2.441,0.000
1741723282.840,-32.227,-107.910,-30.762,-23.926,0.000
1741723282.844,-47.363,-56.641,-31.250,-36.133,0.000
1741723282.848,-3.906,74.219,-19.043,-18.066,0.000
1741723282.852,3.906,38.086,-15.625,-10.254,0.000
1741723282.856,-36.621,-103.027,-15.625,-22.461,0.000
1741723282.860,-46.387,-58.105,4.395,-18.555,0.000
1741723282.863,-19.531,-1.953,-1.953,-9.766,0.000
1741723282.867,12.695,44.922,-6.836,0.000,0.000
1741723282.871,10.742,93.262,-6.836,8.301,0.000
1741723282.875,-24.414,-8.301,-14.160,1.465,0.000
1741723282.879,-40.039,-73.242,-11.719,-15.625,0.000
1741723282.883,6.836,-23.438,8.789,3.906,0.000
1741723282.887,23.438,-6.836,14.160,17.578,0.000
1741723282.891,-16.113,-77.637,-15.625,-0.977,0.000
1741723282.895,-38.086,-58.594,-31.738,-18.066,0.000
1741723282.899,-20.508,39.551,-16.602,-20.996,0.000
1741723282.903,1.953,-5.859,-16.113,-1.953,0.000
1741723282.906,-35.645,-83.984,-24.902,0.488,0.000
1741723282.910,-73.242,-52.734,-11.230,-9.277,0.000
1741723282.914,-35.645,0.488,-6.836,-5.859,0.000
1741723282.918,-5.371,-9.766,-13.184,0.000,0.000
1741723282.922,-14.160,23.438,2.930,3.418,0.000
1741723282.926,-40.527,-21.484,-0.488,-11.230,0.000
1741723282.930,-30.762,-16.602,-3.906,-5.859,0.000
1741723282.934,14.160,63.965,14.160,14.648,0.000
1741723282.938,14.648,33.691,21.484,10.742,0.000
1741723282.942,-21.973,20.508,17.090,-10.254,0.000
1741723282.945,-34.180,9.277,2.441,-21.484,0.000
1741723282.949,-19.531,-123.535,-20.020,-22.949,0.000
1741723282.953,-21.973,-114.746,-20.508,-19.043,0.000
1741723282.957,-39.551,4.395,-18.555,-18.555,0.000
1741723282.961,-60.547,-58.105,-26.367,-38.574,0.000
1741723282.965,-24.902,-0.488,-9.766,-17.090,0.000
1741723282.969,10.254,36.621,-0.977,11.719,0.000
1741723282.973,-37.598,-11.719,-6.348,-6.348,0.000
1741723282.977,-69.336,-26.367,3.418,-27.832,0.000
1741723282.981,-46.875,-41.016,14.648,-23.438,0.000
1741723282.985,-12.207,-8.789,5.859,-17.090,0.000
1741723282.988,-27.832,23.438,0.488,-27.344,0.000
1741723282.992,-72.754,-57.129,-19.043,-36.621,0.000
1741723282.996,-64.941,-61.523,-33.203,-35.645,0.000
1741723283.000,-19.531,71.777,-12.207,-26.855,0.000
1741723283.004,-17.090,0.000,-7.812,-29.297,0.000
1741723283.008,-54.688,-40.527,-12.695,-38.086,0.000
1741723283.012,-66.895,-51.270,-19.531,-41.016,0.000
1741723283.016,-40.527,18.555,-28.809,-38.574,0.000
1741723283.020,-25.879,40.527,-22.949,-36.133,0.000
1741723283.024,-51.270,-61.523,-26.855,-59.570,0.000
1741723283.028,-69.336,-55.176,-31.738,-68.848,0.000
1741723283.031,-33.203,20.020,-21.973,-39.551,0.000
1741723283.035,4.395,82.520,-4.883,-25.879,0.000
1741723283.039,-29.785,-47.363,-11.230,-44.922,0.000
1741723283.043,-72.754,-83.984,-24.902,-53.711,0.000
1741723283.047,-55.176,-33.203,-19.531,-38.574,0.000
1741723283.051,-29.297,-87.402,-22.949,-24.902,0.000
1741723283.055,-28.320,-32.227,-7.324,-8.301,0.000
1741723283.059,-78.613,-4.883,-19.531,-35.645,0.000
1741723283.063,-79.102,-98.145,-44.434,-51.270,0.000
1741723283.067,-23.926,-78.613,-34.180,-21.973,0.000
1741723283.070,-20.996,33.203,-21.973,-11.719,0.000
1741723283.074,-48.828,51.270,-17.090,-20.508,0.000
1741723283.078,-56.641,-6.348,-21.973,-29.297,0.000
1741723283.082,-17.090,104.980,-5.859,-6.836,0.000
1741723283.086,-1.953,19.531,-5.371,0.488,0.000
1741723283.090,-38.086,-135.254,-21.484,-28.809,0.000
1741723283.094,-66.895,-111.328,-22.949,-41.504,0.000
1741723283.098,-41.016,-49.316,-23.438,-24.902,0.000
1741723283.102,-0.977,37.109,-10.742,-2.441,0.000
1741723283.106,-20.020,-16.113,-13.184,-9.277,0.000
1741723283.110,-63.965,-57.129,-20.996,-32.715,0.000
1741723283.113,-61.035,-62.500,-21.973,-37.598,0.000
1741723283.117,-23.438,-45.410,-24.414,-23.926,0.000
1741723283.121,-18.066,81.055,-13.672,-17.090,0.000
1741723283.125,-57.129,20.020,-8.301,-35.645,0.000
1741723283.129,-52.246,-18.555,-7.324,-42.969,0.000
1741723283.133,19.043,8.301,6.348,-11.719,0.000
1741723283.137,14.648,-31.738,-15.625,-8.789,0.000
1741723283.141,-45.898,-66.895,-41.992,-35.645,0.000
1741723283.145,-59.082,-82.031,-44.922,-44.434,0.000
1741723283.149,-20.020,-75.195,-40.527,-30.273,0.000
1741723283.152,0.000,-92.773,-35.156,-19.531,0.000
1741723283.156,-11.719,-31.738,-16.602,-20.996,0.000
1741723283.160,-21.484,16.602,-12.207,-22.461,0.000
1741723283.164,-7.324,37.109,-20.996,-11.719,0.000
1741723283.168,17.578,20.508,-22.461,3.418,0.000
1741723283.172,1.953,6.836,-18.066,-0.977,0.000
1741723283.176,-39.551,-14.160,-19.043,-20.508,0.000
1741723283.180,-26.855,-58.105,-1.465,-7.812,0.000
1741723283.184,14.648,-112.305,15.625,13.184,0.000
1741723283.188,8.301,-18.555,5.859,13.184,0.000
1741723283.192,-38.086,9.766,-14.648,-4.883,0.000
1741723283.195,-59.082,-59.082,-41.016,-35.645,0.000
1741723283.199,-15.137,12.695,-26.367,-23.438,0.000
1741723283.203,15.137,41.992,-2.441,-1.465,0.000
1741723283.207,-12.207,-33.203,-14.648,-19.531,0.000
1741723283.211,-26.367,-35.645,-20.020,-31.250,0.000
1741723283.215,-0.977,26.367,-8.789,-5.371,0.000
1741723283.219,11.719,1.465,-10.742,13.672,0.000
1741723283.223,-23.438,25.879,-15.137,-4.395,0.000
1741723283.227,-61.035,-21.973,-28.320,-30.273,0.000
1741723283.231,-41.992,-129.883,-38.086,-21.484,0.000
1741723283.235,-4.395,-90.820,-26.367,-2.930,0.000
1741723283.238,-22.949,-12.207,-22.461,-24.414,0.000
1741723283.242,-64.453,-2.441,-24.414,-42.480,0.000
1741723283.246,-43.945,-2.441,-23.926,-34.180,0.000
1741723283.250,-1.465,23.438,-19.043,-13.672,0.000
1741723283.254,-13.672,42.969,-22.461,-15.625,0.000
1741723283.258,-61.035,-11.719,-34.180,-36.621,0.000
1741723283.262,-70.801,-44.434,-32.715,-44.434,0.000
1741723283.266,-20.996,-15.625,-17.578,-20.020,0.000
1741723283.270,4.395,42.969,-9.277,-4.883,0.000
1741723283.274,-34.668,30.273,-12.695,-18.555,0.000
1741723283.278,-79.590,-112.305,-36.133,-41.504,0.000
1741723283.281,-45.410,-118.652,-33.691,-27.832,0.000
1741723283.285,8.301,24.414,-18.555,-3.418,0.000
1741723283.289,-23.926,-23.438,-44.434,-24.902,0.000
1741723283.293,-55.664,-135.742,-44.922,-35.156,0.000
1741723283.297,-43.945,-84.961,-45.410,-39.551,0.000
1741723283.301,-14.648,39.062,-35.156,-30.273,0.000
1741723283.305,-20.996,64.941,-16.113,-17.578,0.000
1741723283.309,-75.195,-46.875,-33.203,-41.504,0.000
1741723283.313,-66.895,-18.555,-43.457,-49.805,0.000
1741723283.317,-13.184,88.379,-19.043,-19.531,0.000
1741723283.320,-15.137,-10.254,-3.906,-4.395,0.000
1741723283.324,-56.641,-58.594,-20.020,-24.902,0.000
1741723283.328,-55.176,14.160,-12.207,-26.855,0.000
1741723283.332,-2.930,52.246,12.207,-3.418,0.000
1741723283.336,0.488,21.973,-7.324,-3.906,0.000
1741723283.340,-52.246,-41.992,-41.504,-36.133,0.000
1741723283.344,-77.637,-92.773,-40.039,-43.945,0.000
1741723283.348,-55.176,-99.121,-37.598,-36.133,0.000
1741723283.352,-11.719,0.977,-30.762,-26.367,0.000
1741723283.356,-22.949,-45.898,-17.090,-21.484,0.000
1741723283.360,-60.547,-60.547,-22.461,-33.203,0.000
1741723283.363,-35.645,68.848,-38.574,-31.738,0.000
1741723283.367,10.254,-19.043,-18.066,-0.977,0.000
1741723283.371,0.977,-89.844,-4.395,-1.465,0.000
1741723283.375,-32.715,-18.555,-11.719,-20.996,0.000
1741723283.379,-36.133,31.250,-11.719,-28.320,0.000
1741723283.383,-20.508,-30.762,-20.508,-29.297,0.000
1741723283.387,-22.461,-48.340,-27.832,-23.438,0.000
1741723283.391,-51.758,-43.945,-26.367,-35.156,0.000
1741723283.395,-44.922,53.223,-17.090,-46.387,0.000
1741723283.399,-14.160,19.531,-19.531,-35.156,0.000
1741723283.403,-0.488,-100.098,-17.578,-22.949,0.000
1741723283.406,-21.973,-61.523,-20.508,-31.738,0.000
1741723283.410,-53.711,40.039,-25.879,-41.992,0.000
1741723283.414,-30.762,14.160,-22.949,-27.832,0.000
1741723283.418,1.953,-49.316,-21.973,-14.160,0.000
1741723283.422,-17.578,-24.902,-19.043,-25.879,0.000
1741723283.426,-61.523,-95.703,-28.320,-54.199,0.000
1741723283.430,-55.664,-62.500,-19.043,-46.875,0.000
1741723283.434,-30.762,-23.926,-8.789,-21.973,0.000
1741723283.438,-37.109,16.113,-24.414,-27.344,0.000
1741723283.442,-58.594,45.410,-35.645,-40.039,0.000
1741723283.445,-63.965,-34.668,-33.203,-27.832,0.000
1741723283.449,-38.086,-70.312,-30.762,-17.578,0.000
1741723283.453,-22.949,-0.977,-18.555,-13.672,0.000
1741723283.457,-51.758,-32.227,-15.137,-28.809,0.000
1741723283.461,-70.312,-75.684,-21.973,-39.551,0.000
1741723283.465,-29.297,-51.270,-23.926,-19.043,0.000
1741723283.469,5.859,-33.203,-24.902,7.324,0.000
1741723283.473,-17.578,-25.879,-18.066,5.371,0.000
1741723283.477,-54.688,-1.465,-25.391,-23.926,0.000
1741723283.481,-42.480,-12.695,-42.969,-25.879,0.000
1741723283.485,-1.465,-1.465,-20.996,-3.418,0.000
1741723283.488,-8.301,-13.672,-0.488,-0.977,0.000
1741723283.492,-35.645,-38.086,-9.277,-19.531,0.000
1741723283.496,-30.762,-70.801,-16.602,-26.367,0.000
1741723283.500,8.301,40.527,-3.418,1.465,0.000
1741723283.504,2.930,74.219,-4.883,5.859,0.000
1741723283.508,-35.156,-20.020,-14.160,-6.836,0.000
1741723283.512,-52.246,-79.102,-16.602,-20.996,0.000
1741723283.516,-25.391,-44.922,-19.043,-25.391,0.000
1741723283.520,5.859,36.133,-13.184,-12.695,0.000
1741723283.524,-24.414,13.672,-14.648,-30.762,0.000
1741723283.527,-45.898,-76.172,-20.508,-44.922,0.000
1741723283.531,-6.836,-27.344,-20.020,-22.461,0.000
1741723283.535,18.555,29.785,-13.672,-7.324,0.000
1741723283.539,-16.113,-24.414,-16.602,-19.043,0.000
1741723283.543,-34.180,-20.508,-17.578,-20.020,0.000
1741723283.547,-26.367,-75.684,-20.020,-28.809,0.000
1741723283.551,4.883,34.180,-17.090,-9.766,0.000
1741723283.555,-6.348,39.551,-33.691,0.488,0.000
1741723283.559,-68.848,-120.117,-48.828,-34.180,0.000
1741723283.563,-56.641,-71.289,-36.621,-37.598,0.000
1741723283.567,17.090,70.801,-6.348,9.766,0.000
1741723283.570,31.250,17.090,9.277,22.461,0.000
1741723283.574,-33.203,-99.121,-14.160,-20.996,0.000
1741723283.578,-54.199,-57.617,-19.531,-31.250,0.000
1741723283.582,-13.184,-7.324,-2.930,-4.883,0.000
1741723283.586,14.160,20.020,8.789,12.207,0.000
1741723283.590,-38.574,-111.328,-23.438,-24.902,0.000
1741723283.594,-73.730,-55.664,-39.062,-46.387,0.000
1741723283.598,-27.344,131.836,-21.973,-18.555,0.000
1741723283.602,11.719,39.551,-26.367,1.465,0.000
1741723283.606,-6.348,-51.758,-32.227,-5.859,0.000
1741723283.610,-38.086,-33.203,-28.320,-18.066,0.000
1741723283.613,-27.832,-32.715,-26.855,-21.484,0.000
1741723283.617,11.719,24.414,-13.184,-0.977,0.000
1741723283.621,0.977,44.922,-6.836,5.371,0.000
1741723283.625,-45.898,-81.543,-21.973,-27.832,0.000
1741723283.629,-49.316,-145.020,-35.156,-40.527,0.000
1741723283.633,-1.953,13.672,-31.250,-18.066,0.000
1741723283.637,3.906,48.828,-28.809,-4.883,0.000
1741723283.641,-34.180,3.418,-8.301,-8.301,0.000
1741723283.645,-34.180,107.422,12.207,-9.277,0.000
1741723283.649,-23.438,7.324,-14.160,-15.137,0.000
1741723283.653,-19.531,-145.020,-24.414,-14.648,0.000
1741723283.656,-25.879,-60.547,-16.113,-19.531,0.000
1741723283.660,-54.199,-32.715,-32.715,-41.504,0.000
1741723283.664,-45.410,-73.730,-36.133,-49.316,0.000
1741723283.668,-4.883,-30.762,-33.691,-32.227,0.000
1741723283.672,-6.348,1.465,-36.133,-35.156,0.000
1741723283.676,-36.621,51.758,-28.809,-51.270,0.000
1741723283.680,-22.949,28.320,-17.090,-38.086,0.000
1741723283.684,19.531,-12.695,2.930,-5.859,0.000
1741723283.688,-0.488,-34.180,-10.742,-11.719,0.000
1741723283.692,-37.109,25.879,-20.996,-35.156,0.000
1741723283.695,-46.875,38.086,-25.879,-32.715,0.000
1741723283.699,-34.180,-98.633,-40.527,-18.555,0.000
1741723283.703,-22.949,-105.957,-30.762,-11.230,0.000
1741723283.707,-58.594,-41.016,-35.645,-25.879,0.000
1741723283.711,-87.402,-71.777,-43.457,-54.199,0.000
1741723283.715,-61.035,-82.031,-30.273,-48.340,0.000
1741723283.719,-20.996,-45.410,-29.785,-31.250,0.000
1741723283.723,-35.645,-42.969,-41.504,-40.527,0.000
1741723283.727,-71.289,-15.137,-41.504,-52.246,0.000
1741723283.731,-45.410,15.137,-25.391,-39.551,0.000
1741723283.735,13.184,166.504,3.418,-8.789,0.000
1741723283.738,-12.207,89.355,-2.930,-16.113,0.000
1741723283.742,-65.918,-141.602,-22.949,-38.086,0.000
1741723283.746,-41.016,-101.562,-17.578,-31.738,0.000
1741723283.750,-2.930,-0.977,-20.508,-19.043,0.000
1741723283.754,-22.949,2.930,-26.855,-19.043,0.000
1741723283.758,-50.293,-15.137,-30.762,-32.715,0.000
1741723283.762,-58.105,-55.664,-36.133,-41.016,0.000
1741723283.766,-22.461,-18.066,-22.949,-22.461,0.000
1741723283.770,-1.953,31.250,-2.441,-8.301,0.000
1741723283.774,-44.434,-80.566,-1.953,-23.926,0.000
1741723283.778,-74.219,-68.848,-21.484,-45.410,0.000
1741723283.781,-40.039,-18.066,-34.668,-34.668,0.000
1741723283.785,-0.488,48.828,-27.344,-14.160,0.000
1741723283.789,-20.508,83.008,-7.324,-14.648,0.000
1741723283.793,-74.219,-67.871,-10.254,-41.504,0.000
1741723283.797,-67.383,-134.277,-24.902,-50.781,0.000
1741723283.801,-11.230,-42.969,-12.207,-25.879,0.000
1741723283.805,-17.090,16.113,-2.930,-21.973,0.000
1741723283.809,-66.895,-37.109,-22.949,-48.828,0.000
1741723283.813,-55.664,-82.520,-33.691,-48.828,0.000
1741723283.817,-0.488,-20.020,-15.137,-19.043,0.000
1741723283.820,8.301,78.613,-9.277,-11.719,0.000
1741723283.824,-21.973,22.949,-18.555,-31.738,0.000
1741723283.828,-30.273,-49.316,-25.391,-35.645,0.000
1741723283.832,0.977,91.309,-4.883,-9.766,0.000
1741723283.836,-2.930,35.645,-2.930,-5.371,0.000
1741723283.840,-54.688,-172.852,-29.785,-27.832,0.000
1741723283.844,-67.871,-68.359,-20.508,-36.621,0.000
1741723283.848,-32.715,64.453,-12.695,-22.461,0.000
1741723283.852,-29.785,-72.754,-25.391,-17.090,0.000
1741723283.856,-37.109,-86.914,-13.184,-15.137,0.000
1741723283.860,-39.062,-34.180,7.324,-19.043,0.000
1741723283.863,-36.133,-59.082,-1.465,-19.043,0.000
1741723283.867,-10.742,-40.527,-19.043,-14.160,0.000
1741723283.871,-19.043,19.043,-20.508,-18.066,0.000
1741723283.875,-57.129,11.719,-19.531,-34.180,0.000
1741723283.879,-38.574,63.477,-6.348,-28.320,0.000
1741723283.883,0.488,65.918,-7.324,-11.719,0.000
1741723283.887,-6.836,-58.594,-17.090,-16.113,0.000
1741723283.891,-23.926,-40.039,-13.184,-25.391,0.000
1741723283.895,-25.879,29.297,-12.695,-32.715,0.000
1741723283.899,0.488,-64.941,-10.254,-16.113,0.000
1741723283.902,50.293,39.551,18.555,14.648,0.000
1741723283.906,20.020,59.082,11.719,2.441,0.000
1741723283.910,-41.504,-109.375,-13.672,-23.926,0.000
1741723283.914,-17.090,-65.918,-17.578,-19.531,0.000
1741723283.918,13.672,-64.941,-29.785,-16.113,0.000
1741723283.922,-20.020,-32.715,-29.785,-23.438,0.000
1741723283.926,-54.199,65.430,-19.043,-35.645,0.000
1741723283.930,-33.691,26.855,-18.066,-35.156,0.000
1741723283.934,6.348,-45.410,-25.391,-18.555,0.000
1741723283.938,0.977,-17.090,-31.738,-11.719,0.000
1741723283.942,-45.410,-60.059,-35.156,-23.926,0.000
1741723283.945,-55.664,-79.590,-22.461,-24.902,0.000
1741723283.949,-26.855,-24.902,-20.508,-12.695,0.000
1741723283.953,-0.977,-7.812,-2.441,7.324,0.000
1741723283.957,-31.738,-28.809,4.883,1.953,0.000
1741723283.961,-66.406,-21.484,-12.207,-22.949,0.000
1741723283.965,-29.785,-11.230,-11.230,-18.066,0.000
1741723283.969,-1.465,-38.574,-12.207,-5.371,0.000
1741723283.973,-29.785,-14.160,-23.438,-13.184,0.000
1741723283.977,-66.406,-88.379,-36.133,-33.691,0.000
1741723283.981,-55.176,-120.605,-39.551,-38.086,0.000
1741723283.985,5.371,18.555,-10.254,-5.859,0.000
1741723283.988,3.418,6.836,-1.953,2.930,0.000
1741723283.992,-41.016,-32.715,-17.090,-26.855,0.000
1741723283.996,-31.738,-29.297,-22.461,-24.414,0.000
1741723284.000,15.625,-0.977,-20.508,-3.418,0.000
1741723284.004,32.715,27.832,0.488,0.977,0.000
1741723284.008,5.371,-19.043,13.672,-8.301,0.000
1741723284.012,-27.344,-32.227,-5.371,-26.367,0.000
1741723284.016,-12.207,44.434,-19.043,-16.113,0.000
1741723284.020,12.207,79.590,-15.137,8.789,0.000
1741723284.024,-27.832,-20.020,-22.949,-10.254,0.000
1741723284.028,-51.758,-57.617,-23.438,-36.133,0.000
1741723284.031,-19.531,-22.949,-15.625,-24.902,0.000
1741723284.035,12.207,-22.949,-10.742,-5.371,0.000
1741723284.039,-7.812,-49.805,-23.438,-17.090,0.000
1741723284.043,-44.434,-37.598,-25.391,-29.785,0.000
1741723284.047,-25.879,28.320,-14.648,-21.484,0.000
1741723284.051,12.695,-9.766,-11.230,-8.301,0.000
1741723284.055,13.672,-32.227,-6.348,-2.441,0.000
1741723284.059,-10.254,-8.301,-12.207,-8.789,0.000
1741723284.063,-27.832,-15.625,-25.391,-27.832,0.000
1741723284.067,14.648,71.289,-12.207,-23.438,0.000
1741723284.071,31.738,40.527,-7.812,-8.789,0.000
1741723284.074,-23.926,-2.930,-24.902,-18.066,0.000
1741723284.078,-44.922,-61.523,-35.156,-28.320,0.000
1741723284.082,-7.812,-50.293,-23.438,-10.742,0.000
1741723284.086,13.184,9.766,-13.184,9.766,0.000
1741723284.090,-18.066,16.602,-15.625,3.418,0.000
1741723284.094,-52.246,18.066,-24.902,-19.043,0.000
1741723284.098,-25.391,27.344,-31.738,-12.207,0.000
1741723284.102,3.906,9.277,-22.461,6.348,0.000
1741723284.106,-10.254,-46.387,-12.695,10.254,0.000
1741723284.110,-57.129,-101.074,-45.410,-14.648,0.000
1741723284.113,-51.758,20.996,-45.410,-21.973,0.000
1741723284.117,2.930,54.199,-10.254,6.348,0.000
1741723284.121,-16.602,-105.469,-11.719,-3.418,0.000
1741723284.125,-43.945,-56.641,-17.578,-21.973,0.000
1741723284.129,-31.250,-9.277,-22.461,-16.113,0.000
1741723284.133,0.000,-50.781,-21.484,-5.859,0.000
1741723284.137,8.789,-29.785,-12.207,-4.395,0.000
1741723284.141,-39.062,-59.082,-21.973,-29.785,0.000
1741723284.145,-65.430,-48.828,-38.086,-46.387,0.000
1741723284.149,-33.203,-45.410,-45.898,-37.598,0.000
1741723284.153,-11.230,-54.199,-37.598,-20.508,0.000
1741723284.156,-37.109,-30.762,-31.250,-23.438,0.000
1741723284.160,-64.941,-10.254,-40.039,-49.316,0.000
1741723284.164,-32.227,-2.930,-26.855,-39.062,0.000
1741723284.168,14.160,56.641,-1.953,-2.930,0.000
1741723284.172,0.000,19.043,-8.789,-4.883,0.000
1741723284.176,-41.016,-83.984,-30.273,-35.645,0.000
1741723284.180,-36.133,-35.645,-46.875,-39.062,0.000
1741723284.184,10.254,111.816,-22.461,-6.836,0.000
1741723284.188,16.602,79.590,1.465,3.906,0.000
1741723284.192,-31.250,-106.934,-16.602,-22.461,0.000
1741723284.195,-43.945,-118.164,-29.297,-43.945,0.000
1741723284.199,0.000,-6.348,-20.996,-24.902,0.000
1741723284.203,6.836,-23.926,-36.621,-15.137,0.000
1741723284.207,-29.785,30.762,-46.875,-33.203,0.000
1741723284.211,-64.941,-6.836,-39.551,-48.340,0.000
1741723284.215,-44.434,-129.883,-33.691,-42.969,0.000
1741723284.219,5.859,-50.781,-22.461,-16.602,0.000
1741723284.223,-19.043,40.527,-16.113,-20.020,0.000
1741723284.227,-60.547,-46.387,-18.555,-44.434,0.000
1741723284.231,-37.598,-88.379,-17.578,-31.250,0.000
1741723284.235,-12.207,-28.320,-18.066,-16.602,0.000
1741723284.238,-23.926,-41.504,-24.902,-19.043,0.000
1741723284.242,-54.688,50.293,-31.738,-38.086,0.000
1741723284.246,-54.199,-28.809,-39.551,-55.176,0.000
1741723284.250,10.742,-20.996,-20.508,-22.461,0.000
1741723284.254,28.809,125.000,8.789,0.000,0.000
1741723284.258,-35.645,-23.926,-12.207,-28.809,0.000
1741723284.262,-54.688,-137.207,-27.344,-46.875,0.000
1741723284.266,-15.625,-71.777,-29.297,-39.551,0.000
1741723284.270,-12.207,-74.707,-31.738,-12.695,0.000
1741723284.274,-46.387,-153.320,-32.715,-24.902,0.000
1741723284.277,-66.895,-114.746,-31.250,-48.340,0.000
1741723284.281,-23.926,45.898,-11.719,-20.508,0.000
1741723284.285,22.461,96.191,3.418,1.953,0.000
1741723284.289,-16.602,-44.922,-3.418,-19.043,0.000
1741723284.293,-67.871,-144.531,-22.949,-46.875,0.000
1741723284.297,-33.203,2.930,-8.789,-28.809,0.000
1741723284.301,21.484,178.223,13.672,7.324,0.000
1741723284.305,-1.953,61.035,-5.371,3.418,0.000
1741723284.309,-44.434,-79.590,-11.230,-13.672,0.000
1741723284.313,-39.551,-86.426,-7.324,-24.414,0.000
1741723284.317,-7.324,13.672,0.488,-8.789,0.000
1741723284.320,-16.113,-2.930,-8.789,-6.348,0.000
1741723284.324,-51.270,-84.473,-28.320,-26.367,0.000
1741723284.328,-72.266,-94.238,-35.156,-41.016,0.000
1741723284.332,-48.828,-11.719,-30.273,-33.691,0.000
1741723284.336,-14.648,25.391,-15.625,-19.043,0.000
1741723284.340,-45.898,-49.316,-11.719,-34.668,0.000
1741723284.344,-69.336,-27.832,-14.160,-42.969,0.000
1741723284.348,-9.277,104.492,7.812,-1.465,0.000
1741723284.352,27.344,26.855,9.766,17.090,0.000
1741723284.356,-22.949,-83.496,-22.949,-17.090,0.000
1741723284.360,-74.219,-127.441,-41.504,-49.316,0.000
1741723284.363,-45.898,-83.984,-25.879,-42.969,0.000
1741723284.367,6.836,20.508,-11.719,-16.113,0.000
1741723284.371,-5.859,-105.469,-21.484,-13.672,0.000
1741723284.375,-32.227,-64.941,-15.625,-22.461,0.000
1741723284.379,-50.781,8.789,-5.859,-36.133,0.000
1741723284.383,-20.996,-20.508,-3.418,-22.949,0.000
1741723284.387,11.230,81.543,13.672,1.953,0.000
1741723284.391,-43.457,-5.859,-3.418,-29.297,0.000
1741723284.395,-80.566,-82.520,-30.762,-62.500,0.000
1741723284.399,-40.527,-24.414,-23.438,-43.945,0.000
1741723284.403,-10.254,-39.551,-21.484,-26.367,0.000
1741723284.406,-31.738,-145.020,-18.066,-27.832,0.000
1741723284.410,-58.105,-60.547,-18.555,-36.621,0.000
1741723284.414,-42.480,-12.695,-23.926,-42.480,0.000
1741723284.418,-4.395,-15.625,-15.137,-24.902,0.000
1741723284.422,-27.832,-39.062,-35.645,-28.809,0.000
1741723284.426,-73.242,-69.824,-46.875,-50.293,0.000
1741723284.430,-62.988,-53.223,-33.203,-41.504,0.000
1741723284.434,-32.227,-93.262,-28.320,-25.391,0.000
1741723284.438,-31.738,-35.645,-24.414,-24.414,0.000
1741723284.442,-57.617,56.641,-22.461,-40.039,0.000
1741723284.445,-51.270,-26.855,-7.324,-33.203,0.000
1741723284.449,-9.766,-68.359,1.953,-10.742,0.000
1741723284.453,-12.695,-68.848,-7.812,-3.418,0.000
1741723284.457,-51.758,-62.500,-24.414,-26.855,0.000
1741723284.461,-65.430,-38.574,-29.297,-48.340,0.000
1741723284.465,-22.949,11.230,0.488,-19.043,0.000
1741723284.469,8.789,39.062,-2.441,7.324,0.000
1741723284.473,-27.832,-72.754,-27.832,-6.836,0.000
1741723284.477,-57.617,-40.527,-27.344,-21.484,0.000
1741723284.481,-41.504,-9.277,-16.602,-14.160,0.000
1741723284.485,-12.207,-45.410,-4.883,-2.441,0.000
1741723284.488,-13.672,15.625,-3.906,-4.883,0.000
1741723284.492,-40.527,-54.199,-2.930,-15.625,0.000
1741723284.496,-26.367,-49.316,11.230,-0.488,0.000
1741723284.500,0.488,-6.348,8.301,11.230,0.000
1741723284.504,-26.367,-41.992,-15.137,-11.230,0.000
1741723284.508,-58.105,-68.359,-22.461,-33.691,0.000
1741723284.512,-56.152,-70.801,-9.766,-38.086,0.000
1741723284.516,-26.367,-46.387,-4.883,-20.996,0.000
1741723284.520,-14.160,-10.254,-10.742,-8.301,0.000
1741723284.524,-27.832,70.801,-10.254,-18.555,0.000
1741723284.528,-49.316,-12.695,-30.762,-36.133,0.000
1741723284.531,-17.090,-69.824,-34.180,-29.297,0.000
1741723284.535,18.555,80.566,-17.090,-16.602,0.000
1741723284.539,-31.738,28.809,-14.160,-40.527,0.000
1741723284.543,-66.406,-136.230,-12.207,-64.941,0.000
1741723284.547,-22.461,-55.664,-10.742,-51.270,0.000
1741723284.551,16.602,-15.137,-19.043,-29.785,0.000
1741723284.555,5.371,15.625,-19.531,-22.949,0.000
1741723284.559,-56.152,-30.273,-32.715,-41.992,0.000
1741723284.563,-78.125,-120.605,-41.504,-46.875,0.000
1741723284.567,-42.480,-75.684,-38.086,-33.691,0.000
1741723284.570,-22.461,18.066,-25.391,-15.137,0.000
1741723284.574,-58.594,-37.598,-39.062,-28.809,0.000
1741723284.578,-81.055,-57.617,-57.617,-55.176,0.000
1741723284.582,-31.250,88.867,-40.527,-29.297,0.000
1741723284.586,3.418,95.703,-23.926,-8.789,0.000
1741723284.590,-16.113,-51.270,-9.766,-16.113,0.000
1741723284.594,-37.598,-73.242,-1.465,-23.926,0.000
1741723284.598,-40.527,-41.016,-19.043,-29.297,0.000
1741723284.602,-16.602,-32.715,-35.645,-21.973,0.000
1741723284.606,-8.789,-31.250,-25.879,-15.625,0.000
1741723284.610,-57.129,-96.680,-28.320,-41.504,0.000
1741723284.613,-56.641,-44.922,-31.738,-50.781,0.000
1741723284.617,7.812,91.797,-8.301,-20.996,0.000
1741723284.621,-12.207,-57.129,-16.602,-20.508,0.000
1741723284.625,-55.664,-84.473,-49.805,-46.387,0.000
1741723284.629,-44.922,89.355,-44.434,-48.340,0.000
1741723284.633,-11.719,-22.949,-25.879,-15.625,0.000
1741723284.637,8.789,41.504,-9.766,4.883,0.000
1741723284.641,-21.484,15.625,-19.531,-15.625,0.000
1741723284.645,-38.574,-111.816,-34.180,-35.645,0.000
1741723284.649,-2.930,-7.812,-21.484,-17.578,0.000
1741723284.652,15.625,15.625,-6.348,2.441,0.000
1741723284.656,-16.602,-39.551,-2.441,-6.348,0.000
1741723284.660,-28.320,-11.719,-2.441,-10.742,0.000
1741723284.664,-17.090,63.965,-12.695,-23.438,0.000
1741723284.668,19.531,68.848,-19.531,-11.230,0.000
1741723284.672,10.742,11.230,-34.668,-4.395,0.000
1741723284.676,-55.664,1.465,-37.598,-31.250,0.000
1741723284.680,-61.523,-24.414,-22.461,-34.180,0.000
1741723284.684,-16.602,-26.855,-15.625,-15.137,0.000
1741723284.688,-7.324,-23.926,-14.160,-9.766,0.000
1741723284.692,-38.086,-32.715,-21.484,-21.484,0.000
1741723284.695,-56.641,17.578,-28.320,-35.645,0.000
1741723284.699,-22.949,1.465,-17.578,-22.949,0.000
1741723284.703,11.230,11.230,-3.906,-1.465,0.000
1741723284.707,-25.879,20.996,-10.742,-10.742,0.000
1741723284.711,-44.434,-18.066,-17.578,-25.879,0.000
1741723284.715,-12.695,3.906,-8.789,-17.578,0.000
1741723284.719,2.441,41.992,-2.441,1.953,0.000
1741723284.723,-29.297,49.316,-7.812,-3.418,0.000
1741723284.727,-70.312,-78.613,-21.973,-30.273,0.000
1741723284.731,-50.293,-125.000,-18.555,-27.344,0.000
1741723284.735,-8.301,-23.438,-15.137,-4.883,0.000
1741723284.738,-5.371,61.523,-0.488,1.953,0.000
1741723284.742,-50.781,-54.199,-5.859,-24.902,0.000
1741723284.746,-66.895,-73.730,-39.551,-43.457,0.000
1741723284.750,-20.996,35.156,-37.109,-28.320,0.000
1741723284.754,0.977,9.766,-11.230,-16.602,0.000
1741723284.758,-30.273,-32.715,-24.414,-23.438,0.000
1741723284.762,-41.504,-1.953,-38.086,-24.902,0.000
1741723284.766,-18.555,-4.395,-30.273,-21.484,0.000
1741723284.770,3.418,50.293,-16.113,-6.836,0.000
1741723284.774,-13.184,10.254,-5.371,-13.184,0.000
1741723284.778,-41.504,-124.023,-19.531,-45.898,0.000
1741723284.781,-19.531,-85.449,-33.691,-42.480,0.000
1741723284.785,20.020,26.855,-13.672,-12.695,0.000
1741723284.789,15.137,27.832,14.648,2.930,0.000
1741723284.793,-33.203,-60.547,-0.977,-25.879,0.000
1741723284.797,-34.668,-48.828,-19.531,-30.762,0.000
1741723284.801,12.207,46.875,-6.348,-3.906,0.000
1741723284.805,6.836,-14.160,-10.254,-0.977,0.000
1741723284.809,-25.391,32.715,-22.461,-16.602,0.000
1741723284.813,-27.344,36.621,-28.809,-25.391,0.000
1741723284.817,5.371,47.852,-20.508,-11.719,0.000
1741723284.821,20.508,51.758,4.883,3.906,0.000
1741723284.824,-25.391,-83.496,-6.836,-8.301,0.000
1741723284.828,-34.668,-91.797,-15.137,-19.043,0.000
1741723284.832,26.855,-24.902,22.949,7.324,0.000
1741723284.836,26.855,-41.504,22.949,13.672,0.000
1741723284.840,-20.020,-23.926,-4.395,-12.695,0.000
1741723284.844,-57.617,-25.391,-17.090,-36.133,0.000
1741723284.848,-37.598,-4.395,-13.672,-29.297,0.000
1741723284.852,4.395,19.531,-15.625,-8.301,0.000
1741723284.856,-17.578,-9.277,-25.391,-14.160,0.000
1741723284.860,-52.246,-5.859,-25.391,-29.297,0.000
1741723284.863,-24.414,56.152,-4.883,-15.625,0.000
1741723284.867,16.602,34.180,10.254,2.930,0.000
1741723284.871,-13.672,-64.941,-9.766,-5.859,0.000
1741723284.875,-72.754,-142.578,-25.391,-44.434,0.000
1741723284.879,-63.965,-55.176,-22.949,-52.246,0.000
1741723284.883,-11.719,17.578,-9.766,-18.555,0.000
1741723284.887,-6.348,-20.020,-7.324,-9.277,0.000
1741723284.891,-43.457,-25.879,-18.555,-32.715,0.000
1741723284.895,-59.082,-47.363,-22.461,-38.086,0.000
1741723284.899,-29.785,0.000,-20.508,-16.113,0.000
1741723284.903,-11.719,13.184,-23.438,-4.883,0.000
1741723284.906,-27.832,-8.789,-24.414,-11.230,0.000
1741723284.910,-51.758,23.926,-13.672,-22.949,0.000
1741723284.914,-42.969,-68.848,-16.113,-27.832,0.000
1741723284.918,-14.160,-30.762,-21.973,-11.719,0.000
1741723284.922,-24.902,23.438,-28.320,-8.789,0.000
1741723284.926,-69.824,-112.793,-42.480,-35.156,0.000
1741723284.930,-58.594,-110.840,-36.133,-38.574,0.000
1741723284.934,-11.230,-53.223,-30.762,-14.648,0.000
1741723284.938,-26.367,-62.988,-48.340,-18.066,0.000
1741723284.942,-63.965,-53.223,-47.363,-37.598,0.000
1741723284.945,-48.828,9.766,-20.996,-38.574,0.000
1741723284.949,-1.953,63.477,-19.531,-21.973,0.000
1741723284.953,1.953,58.105,-23.926,-7.324,0.000
1741723284.957,-35.156,88.867,-13.672,-15.137,0.000
1741723284.961,-62.012,-51.270,-19.531,-31.250,0.000
1741723284.965,-40.527,-136.230,-23.926,-21.973,0.000
1741723284.969,-8.301,-17.578,-19.043,-12.695,0.000
1741723284.973,-32.715,0.977,-23.926,-32.715,0.000
1741723284.977,-72.266,-59.082,-35.645,-57.129,0.000
1741723284.981,-40.039,-42.969,-22.461,-38.086,0.000
1741723284.985,24.414,50.781,1.953,3.418,0.000
1741723284.988,-8.301,-35.645,-16.113,-18.555,0.000
1741723284.992,-68.848,-81.055,-34.180,-45.898,0.000
1741723284.996,-62.988,-34.668,-33.203,-38.086,0.000
1741723285.000,-38.574,-70.801,-43.457,-39.062,0.000
1741723285.004,-36.133,31.738,-40.527,-36.133,0.000
1741723285.008,-66.895,-56.152,-51.758,-50.781,0.000
1741723285.012,-82.520,-92.773,-47.363,-52.246,0.000
1741723285.016,-39.551,43.457,-19.043,-28.809,0.000
1741723285.020,-12.207,40.527,-11.230,-15.137,0.000
1741723285.024,-42.969,-7.324,-12.207,-26.367,0.000
1741723285.028,-65.918,-53.711,-23.926,-40.039,0.000
1741723285.031,-34.668,6.836,-32.715,-33.691,0.000
1741723285.035,11.719,42.969,-14.648,-6.348,0.000
1741723285.039,-10.742,-48.340,-13.184,-11.719,0.000
1741723285.043,-58.105,-47.852,-27.832,-34.668,0.000
1741723285.047,-39.551,-68.359,-26.367,-21.484,0.000
1741723285.051,9.766,45.410,-14.648,-0.977,0.000
1741723285.055,-10.742,43.457,-22.461,-9.277,0.000
1741723285.059,-47.852,-93.262,-22.461,-21.484,0.000
1741723285.063,-43.945,-32.715,-14.648,-24.414,0.000
1741723285.067,-16.113,-9.277,-8.789,-14.160,0.000
1741723285.070,7.812,15.137,6.836,5.371,0.000
1741723285.074,-24.902,28.809,-8.789,-9.766,0.000
1741723285.078,-61.035,-23.926,-28.320,-40.039,0.000
1741723285.082,-31.250,-87.402,-33.691,-28.320,0.000
1741723285.086,-0.488,-14.648,-16.602,-3.418,0.000
1741723285.090,-14.648,41.992,5.371,-10.742,0.000
1741723285.094,-27.344,-59.570,6.836,-24.902,0.000
1741723285.098,-6.836,35.645,8.789,-19.043,0.000
1741723285.102,4.395,59.570,8.301,-0.977,0.000
1741723285.106,-28.320,-124.023,-9.766,-8.789,0.000
1741723285.110,-62.500,-67.383,-28.809,-29.785,0.000
1741723285.113,-45.898,-40.527,-24.414,-30.762,0.000
1741723285.117,16.113,4.395,12.695,0.000,0.000
1741723285.121,22.461,48.340,28.809,16.602,0.000
1741723285.125,-54.688,-61.523,-2.930,-33.203,0.000
1741723285.129,-68.359,-34.668,-23.926,-55.664,0.000
1741723285.133,-11.719,83.008,-27.832,-29.297,0.000
1741723285.137,-8.789,-0.488,-28.320,-19.043,0.000
1741723285.141,-48.340,-75.195,-17.090,-27.832,0.000
1741723285.145,-66.895,27.832,-13.672,-34.180,0.000
1741723285.149,-20.996,85.938,-9.277,-19.043,0.000
1741723285.153,2.441,-41.992,-15.625,-16.602,0.000
1741723285.156,-31.738,-75.195,-27.344,-30.762,0.000
1741723285.160,-56.641,-4.395,-20.020,-39.062,0.000
1741723285.164,-37.109,-44.922,-19.531,-38.574,0.000
1741723285.168,2.930,18.555,-4.883,-14.648,0.000
1741723285.172,-7.812,8.301,2.930,-2.441,0.000
1741723285.176,-54.688,-87.402,-15.137,-32.227,0.000
1741723285.180,-62.012,-71.289,-25.391,-28.809,0.000
1741723285.184,-21.973,-62.012,-26.855,-9.766,0.000
1741723285.188,7.324,40.039,-6.836,-2.930,0.000
1741723285.192,-22.461,42.480,-11.719,-15.137,0.000
1741723285.196,-55.664,-95.703,-35.645,-40.527,0.000
1741723285.199,-26.855,-84.473,-36.133,-31.738,0.000
1741723285.203,7.324,28.320,-18.555,-7.324,0.000
1741723285.207,-21.484,-40.527,-19.043,-24.414,0.000
1741723285.211,-50.293,-74.707,-37.109,-49.316,0.000
1741723285.215,-7.324,-24.902,-19.531,-27.832,0.000
1741723285.219,37.598,78.613,6.348,11.719,0.000
1741723285.223,-0.977,11.230,-10.742,-9.277,0.000
1741723285.227,-53.711,-67.871,-36.133,-43.457,0.000
1741723285.231,-33.203,-26.367,-35.156,-30.273,0.000
1741723285.235,3.418,-52.246,-24.902,-7.812,0.000
1741723285.238,-8.301,6.836,-21.973,-7.324,0.000
1741723285.242,-40.527,-2.930,-20.020,-24.414,0.000
1741723285.246,-51.270,-117.676,-25.391,-30.762,0.000
1741723285.250,-7.324,-47.363,-21.973,-12.695,0.000
1741723285.254,4.395,23.438,-27.344,-13.672,0.000
1741723285.258,-36.133,46.875,-38.086,-38.574,0.000
1741723285.262,-59.082,-54.688,-40.039,-49.316,0.000
1741723285.266,-18.066,-1.465,-13.672,-26.367,0.000
1741723285.270,8.789,34.668,-0.977,-14.160,0.000
1741723285.274,-30.273,5.859,-22.949,-36.133,0.000
1741723285.278,-69.824,-19.531,-33.691,-49.805,0.000
1741723285.281,-36.133,-28.809,-33.203,-36.133,0.000
1741723285.285,14.648,74.219,-19.531,-10.254,0.000
1741723285.289,-20.020,11.230,-30.762,-27.344,0.000
1741723285.293,-67.871,-133.789,-54.688,-62.988,0.000
1741723285.297,-41.504,-52.734,-41.016,-53.223,0.000
1741723285.301,-3.418,-19.531,-30.762,-23.926,0.000
1741723285.305,-18.555,-53.223,-29.297,-31.250,0.000
1741723285.309,-57.617,-45.898,-25.391,-50.293,0.000
1741723285.313,-33.691,45.898,-10.742,-23.438,0.000
1741723285.317,19.043,121.094,-5.859,0.488,0.000
1741723285.321,-3.906,4.883,-33.203,-32.715,0.000
1741723285.324,-66.406,-100.586,-50.781,-68.359,0.000
1741723285.328,-62.012,-40.039,-41.992,-59.570,0.000
1741723285.332,-26.855,38.086,-33.203,-38.086,0.000
1741723285.336,-6.348,70.312,-29.785,-22.461,0.000
1741723285.340,-32.227,-65.918,-46.875,-38.574,0.000
1741723285.344,-65.430,-122.559,-59.082,-73.730,0.000
1741723285.348,-17.578,46.875,-44.922,-64.941,0.000
1741723285.352,19.531,72.754,-29.785,-44.434,0.000
1741723285.356,-3.906,6.836,-19.043,-41.016,0.000
1741723285.360,-37.109,-18.066,-18.555,-45.410,0.000
1741723285.363,-37.598,-39.551,-29.297,-44.922,0.000
1741723285.367,-20.996,-44.434,-48.340,-40.039,0.000
1741723285.371,-19.531,-13.672,-54.688,-36.133,0.000
1741723285.375,-49.316,-76.660,-53.223,-38.574,0.000
1741723285.379,-53.711,16.602,-31.250,-40.039,0.000
1741723285.383,-15.625,55.176,-15.625,-26.367,0.000
1741723285.387,-9.766,-54.688,-24.414,-22.949,0.000
1741723285.391,-49.805,-38.086,-30.273,-41.992,0.000
1741723285.395,-83.984,-112.305,-49.316,-65.918,0.000
1741723285.399,-33.691,-36.621,-37.598,-46.875,0.000
1741723285.403,3.418,75.684,-8.301,-12.695,0.000
1741723285.406,-42.969,-31.738,-18.555,-25.879,0.000
1741723285.410,-74.219,-59.082,-25.879,-46.875,0.000
1741723285.414,-46.387,6.348,-20.508,-42.969,0.000
1741723285.418,-10.742,0.000,-21.484,-30.762,0.000
1741723285.422,-33.203,-42.480,-25.879,-33.691,0.000
1741723285.426,-82.031,-21.484,-31.738,-55.176,0.000
1741723285.430,-63.965,9.277,-32.715,-51.270,0.000
1741723285.434,-18.555,-98.633,-26.855,-31.738,0.000
1741723285.438,-16.113,-109.863,-21.973,-23.926,0.000
1741723285.442,-41.016,-26.367,-18.555,-33.203,0.000
1741723285.445,-42.969,-19.531,-25.879,-37.109,0.000
1741723285.449,-14.648,-91.309,-36.621,-24.414,0.000
1741723285.453,-8.789,-27.832,-34.180,-29.785,0.000
1741723285.457,-38.574,9.277,-22.461,-44.922,0.000
1741723285.461,-58.594,-34.180,-17.578,-45.410,0.000
1741723285.465,-26.855,-9.766,-3.906,-20.996,0.000
1741723285.469,-0.488,-20.996,3.906,-5.371,0.000
1741723285.473,-28.809,39.551,0.000,-18.555,0.000
1741723285.477,-58.105,14.648,-0.488,-40.039,0.000
1741723285.481,-39.551,-55.664,-10.254,-33.691,0.000
1741723285.485,3.906,68.848,-10.254,-4.883,0.000
1741723285.488,-14.160,-72.266,-13.672,-17.090,0.000
1741723285.492,-48.340,-125.488,-11.719,-31.738,0.000
1741723285.496,-41.016,-6.836,-13.184,-26.367,0.000
1741723285.500,-7.812,2.930,-28.809,-16.113,0.000
1741723285.504,-4.395,29.785,-34.668,-11.230,0.000
1741723285.508,-39.551,12.207,-18.555,-30.273,0.000
1741723285.512,-52.246,-30.762,-9.766,-45.410,0.000
1741723285.516,-22.461,-7.324,-16.113,-34.180,0.000
1741723285.520,3.418,110.840,-9.766,-20.508,0.000
1741723285.524,-33.203,-3.906,-14.648,-33.691,0.000
1741723285.528,-67.383,-144.531,-32.715,-50.293,0.000
1741723285.531,-28.320,-87.891,-25.391,-28.809,0.000
1741723285.535,-3.418,-14.648,-20.508,-15.137,0.000
1741723285.539,-31.250,25.391,-21.484,-26.855,0.000
1741723285.543,-58.594,5.859,-23.926,-41.992,0.000
1741723285.547,-58.594,-37.109,-44.434,-49.805,0.000
1741723285.551,-28.809,-41.504,-51.758,-39.062,0.000
1741723285.555,-27.344,-43.945,-42.480,-26.367,0.000
1741723285.559,-66.406,-57.129,-44.434,-44.922,0.000
1741723285.563,-62.500,-75.195,-39.062,-51.270,0.000
1741723285.567,-5.859,64.453,-5.371,-16.602,0.000
1741723285.571,-4.395,67.871,0.000,-8.301,0.000
1741723285.574,-56.152,-33.691,-21.973,-32.715,0.000
1741723285.578,-70.801,-19.531,-38.086,-46.387,0.000
1741723285.582,-30.762,-26.855,-36.621,-34.180,0.000
1741723285.586,-2.930,-38.086,-29.785,-24.414,0.000
1741723285.590,-31.250,-16.602,-29.785,-38.574,0.000
1741723285.594,-50.781,-35.156,-32.715,-48.828,0.000
1741723285.598,-25.879,35.645,-33.691,-37.598,0.000
1741723285.602,2.930,23.438,-34.668,-20.020,0.000
1741723285.606,-8.789,-52.246,-37.109,-21.973,0.000
1741723285.610,-49.805,-17.578,-41.504,-46.875,0.000
1741723285.613,-35.645,46.387,-36.133,-44.434,0.000
1741723285.617,-3.418,-21.973,-24.414,-14.160,0.000
1741723285.621,-18.555,-113.281,-26.367,-15.625,0.000
1741723285.625,-44.434,-46.387,-24.902,-28.809,0.000
1741723285.629,-54.688,-42.480,-30.273,-29.297,0.000
1741723285.633,-25.391,-18.066,-25.391,-20.996,0.000
1741723285.637,-10.254,2.441,-8.789,-12.207,0.000
1741723285.641,-38.574,4.883,-9.766,-27.344,0.000
1741723285.645,-55.664,-20.508,-16.113,-34.180,0.000
1741723285.649,-41.016,-64.941,-27.832,-30.762,0.000
1741723285.653,-12.207,16.113,-32.715,-20.508,0.000
1741723285.656,-30.273,-9.766,-28.320,-25.879,0.000
1741723285.660,-45.898,28.809,-18.066,-32.227,0.000
1741723285.664,-36.133,2.930,-19.043,-21.484,0.000
1741723285.668,3.906,-23.438,-5.859,2.930,0.000
1741723285.672,-0.488,-21.973,0.000,-6.348,0.000
1741723285.676,-66.895,-86.914,-34.668,-47.363,0.000
1741723285.680,-64.941,-55.664,-49.316,-49.316,0.000
1741723285.684,0.488,-8.789,-24.902,-13.184,0.000
1741723285.688,16.113,-14.648,-13.184,-0.488,0.000
1741723285.692,-49.805,-45.898,-44.434,-32.227,0.000
1741723285.696,-67.383,26.367,-40.039,-38.574,0.000
1741723285.699,-24.414,5.371,-18.066,-20.508,0.000
1741723285.703,-10.254,-28.809,-19.043,-19.043,0.000
1741723285.707,-33.691,25.391,-20.996,-31.738,0.000
1741723285.711,-46.387,18.066,-19.531,-38.574,0.000
1741723285.715,-7.812,-45.410,-15.625,-25.391,0.000
1741723285.719,6.348,-56.152,-18.066,-13.184,0.000
1741723285.723,-35.645,-46.387,-26.855,-24.902,0.000
1741723285.727,-79.590,-101.562,-43.945,-57.129,0.000
1741723285.731,-59.570,-49.805,-46.387,-54.688,0.000
1741723285.735,-5.859,34.668,-34.180,-22.461,0.000
1741723285.738,-5.859,5.371,-20.020,-11.719,0.000
1741723285.742,-59.082,-105.957,-32.227,-36.621,0.000
1741723285.746,-66.406,-110.352,-43.945,-60.059,0.000
1741723285.750,-9.766,0.000,-16.113,-30.273,0.000
1741723285.754,7.812,102.539,-11.719,-11.230,0.000
1741723285.758,-38.574,-29.297,-31.250,-33.691,0.000
1741723285.762,-65.918,-116.211,-41.016,-49.316,0.000
1741723285.766,-31.738,11.230,-29.297,-32.715,0.000
1741723285.770,-17.090,10.742,-30.762,-21.973,0.000
1741723285.774,-52.734,-74.219,-51.758,-34.668,0.000
1741723285.778,-77.637,-126.465,-50.293,-48.828,0.000
1741723285.781,-44.434,-85.449,-34.180,-37.109,0.000
1741723285.785,-8.789,-11.719,-39.062,-10.254,0.000
1741723285.789,-19.043,33.203,-42.480,-0.488,0.000
1741723285.793,-49.316,3.418,-29.785,-18.555,0.000
1741723285.797,-44.922,-41.992,-26.855,-36.621,0.000
1741723285.801,3.906,56.641,-10.742,-15.625,0.000
1741723285.805,-4.395,-22.949,-19.043,-12.207,0.000
1741723285.809,-54.688,-131.836,-42.969,-39.062,0.000
1741723285.813,-44.922,-7.812,-28.809,-31.250,0.000
1741723285.817,-8.301,-8.789,-12.207,-0.488,0.000
1741723285.821,-8.789,-82.520,-16.113,3.418,0.000
1741723285.824,-35.156,-6.348,-19.043,-11.719,0.000
1741723285.828,-38.574,22.949,-21.484,-20.508,0.000
1741723285.832,-6.348,14.648,-16.113,-12.695,0.000
1741723285.836,15.625,19.531,-9.766,4.883,0.000
1741723285.840,0.977,21.973,-20.020,-1.465,0.000
1741723285.844,-41.992,-35.645,-35.156,-29.785,0.000
1741723285.848,-12.207,55.664,-27.832,-15.137,0.000
1741723285.852,20.996,21.973,-20.508,5.371,0.000
1741723285.856,-13.672,-101.562,-31.738,-8.789,0.000
1741723285.860,-40.527,-54.688,-27.832,-20.020,0.000
1741723285.863,-19.043,-27.832,-33.203,-13.184,0.000
1741723285.867,20.508,4.883,-27.344,-1.465,0.000
1741723285.871,4.883,24.414,-4.883,1.953,0.000
1741723285.875,-38.086,-76.660,-9.277,-16.602,0.000
1741723285.879,-37.598,-39.551,-17.578,-22.461,0.000
1741723285.883,-6.836,1.953,-14.648,-10.254,0.000
1741723285.887,-6.348,-77.637,-26.855,-12.207,0.000
1741723285.891,-34.668,-74.219,-30.273,-18.066,0.000
1741723285.895,-57.129,-41.504,-29.785,-35.645,0.000
1741723285.899,-23.438,-6.348,-38.574,-25.391,0.000
1741723285.903,2.930,-36.621,-39.062,-11.719,0.000
1741723285.906,-32.715,-72.266,-33.203,-32.227,0.000
1741723285.910,-53.711,-52.246,-24.902,-38.086,0.000
1741723285.914,-30.762,-47.363,-28.809,-28.809,0.000
1741723285.918,-0.488,-20.020,-29.297,-8.789,0.000
1741723285.922,-21.484,-28.320,-20.508,-14.648,0.000
1741723285.926,-64.453,-46.387,-26.855,-48.340,0.000
1741723285.930,-46.387,10.742,-23.438,-37.109,0.000
1741723285.934,-5.859,36.621,-20.020,-6.836,0.000
1741723285.938,-20.508,20.508,-30.273,-17.090,0.000
1741723285.942,-55.176,15.625,-22.461,-37.598,0.000
1741723285.946,-54.688,-90.820,-19.043,-38.086,0.000
1741723285.949,-14.160,-132.324,-25.879,-24.414,0.000
1741723285.953,0.488,-49.805,-17.090,-10.254,0.000
1741723285.957,-32.227,-32.715,-12.207,-17.090,0.000
1741723285.961,-43.457,-14.648,-15.137,-26.367,0.000
1741723285.965,-16.113,2.930,-7.324,-12.695,0.000
1741723285.969,0.000,61.523,14.648,20.020,0.000
1741723285.973,0.000,-8.301,-3.906,10.742,0.000
1741723285.977,0.000,-80.566,-33.203,-20.508,0.000
1741723285.981,0.000,-46.387,-28.320,-19.043,0.000
1741723285.985,0.000,-11.719,-15.625,-5.859,0.000
1741723285.989,0.000,52.734,-6.348,-3.906,0.000
1741723285.992,0.000,-54.688,-20.020,-35.156,0.000
1741723285.996,0.000,-168.945,-29.785,-45.410,0.000
1741723286.000,0.000,-46.387,-12.695,-21.484,0.000
1741723286.004,0.000,20.996,-0.488,-10.254,0.000
1741723286.008,0.000,-42.480,-15.625,-30.762,0.000
1741723286.012,0.000,4.883,-16.602,-39.551,0.000
